%OpenBCI Raw EEG Data
%
%Sample Rate = 200.0 Hz
%First Column = SampleIndex
%Last Column = Timestamp 
%Other Columns = EEG data in microvolts followed by Accel Data (in G) interleaved with Aux Data
0, 5.11, 279.56, -147.73, 10.16, 0.000, 0.000, 0.000, 17:27:40.877
1, 15.45, 245.94, -169.37, 19.42, 0.000, 0.000, 0.000, 17:27:40.892
2, 5.08, 262.57, -309.43, 13.29, 0.000, 0.000, 0.000, 17:27:40.892
3, -3.11, 269.01, -213.23, 13.99, 0.000, 0.000, 0.000, 17:27:40.907
4, 6.93, 252.09, -127.62, 11.76, 0.000, 0.000, 0.000, 17:27:40.908
5, 28.01, 248.36, -284.68, 12.22, 0.000, 0.000, 0.000, 17:27:40.908
6, 14.74, 276.69, -271.68, 10.22, 0.000, 0.000, 0.000, 17:27:40.908
7, 10.60, 258.94, -132.79, 12.26, 0.000, 0.000, 0.000, 17:27:40.922
8, 11.43, 248.41, -227.62, 7.73, 0.000, 0.000, 0.000, 17:27:40.922
9, 26.46, 272.97, -304.47, 12.32, 0.000, 0.000, 0.000, 17:27:40.937
10, 6.61, 281.55, -155.74, 13.33, 0.000, 0.000, 0.000, 17:27:40.937
11, 22.35, 260.33, -164.18, 10.27, 0.000, 0.000, 0.000, 17:27:40.938
12, 28.28, 269.71, -306.81, 11.68, 0.000, 0.000, 0.000, 17:27:40.938
13, -5.72, 287.47, -209.15, 14.13, 0.000, 0.000, 0.000, 17:27:40.953
14, 5.09, 269.17, -121.53, 5.29, 0.000, 0.000, 0.000, 17:27:40.954
15, 9.41, 262.81, -275.88, 8.80, 0.000, 0.000, 0.000, 17:27:40.967
16, -4.61, 293.93, -267.74, 15.55, 0.000, 0.000, 0.000, 17:27:40.968
17, 5.92, 277.10, -119.84, 9.64, 0.000, 0.000, 0.000, 17:27:40.968
18, 16.96, 262.03, -218.50, 11.12, 0.000, 0.000, 0.000, 17:27:40.968
19, 12.64, 276.42, -304.88, 8.51, 0.000, 0.000, 0.000, 17:27:40.983
20, 2.44, 273.34, -164.34, 11.89, 0.000, 0.000, 0.000, 17:27:40.983
21, 16.89, 253.55, -167.21, 11.09, 0.000, 0.000, 0.000, 17:27:40.997
22, 23.37, 259.32, -308.47, 10.48, 0.000, 0.000, 0.000, 17:27:40.998
23, -0.34, 283.14, -206.52, 10.45, 0.000, 0.000, 0.000, 17:27:40.998
24, 1.34, 247.84, -132.44, 14.06, 0.000, 0.000, 0.000, 17:27:40.998
25, 8.12, 239.24, -282.67, 12.83, 0.000, 0.000, 0.000, 17:27:41.012
26, -6.05, 268.41, -264.18, 8.33, 0.000, 0.000, 0.000, 17:27:41.013
27, -5.66, 250.98, -111.95, 11.13, 0.000, 0.000, 0.000, 17:27:41.028
28, 98.04, 242.18, -203.59, 8.30, 0.000, 0.000, 0.000, 17:27:41.028
29, 184.57, 261.89, -275.54, 12.64, 0.000, 0.000, 0.000, 17:27:41.029
30, 216.11, 258.39, -119.37, 13.31, 0.000, 0.000, 0.000, 17:27:41.029
31, 253.72, 243.79, -118.87, 12.48, 0.000, 0.000, 0.000, 17:27:41.042
32, 183.74, 254.74, -292.04, 7.11, 0.000, 0.000, 0.000, 17:27:41.043
33, -52.82, 283.97, -231.33, 7.95, 0.000, 0.000, 0.000, 17:27:41.058
34, -207.67, 270.19, -165.40, 6.93, 0.000, 0.000, 0.000, 17:27:41.058
35, -194.98, 281.07, -325.65, 13.27, 0.000, 0.000, 0.000, 17:27:41.058
36, -74.98, 310.65, -299.25, 9.44, 0.000, 0.000, 0.000, 17:27:41.059
37, -32.09, 288.89, -132.71, 15.66, 0.000, 0.000, 0.000, 17:27:41.072
38, -18.32, 273.00, -201.51, 10.58, 0.000, 0.000, 0.000, 17:27:41.073
39, -24.27, 282.26, -297.84, 12.35, 0.000, 0.000, 0.000, 17:27:41.088
40, -35.60, 283.22, -150.40, 6.62, 0.000, 0.000, 0.000, 17:27:41.089
41, -8.14, 253.58, -162.55, 12.38, 0.000, 0.000, 0.000, 17:27:41.089
42, 0.13, 260.28, -310.18, 9.46, 0.000, 0.000, 0.000, 17:27:41.089
43, -10.56, 272.15, -219.32, 11.78, 0.000, 0.000, 0.000, 17:27:41.102
44, 8.06, 245.07, -134.84, 9.46, 0.000, 0.000, 0.000, 17:27:41.103
45, 4.35, 243.81, -275.02, 9.57, 0.000, 0.000, 0.000, 17:27:41.118
46, 5.77, 272.29, -272.12, 11.06, 0.000, 0.000, 0.000, 17:27:41.118
47, 16.66, 259.18, -128.64, 9.42, 0.000, 0.000, 0.000, 17:27:41.118
48, 17.86, 255.20, -211.13, 10.39, 0.000, 0.000, 0.000, 17:27:41.119
49, 13.23, 283.30, -294.06, 11.52, 0.000, 0.000, 0.000, 17:27:41.132
50, 19.54, 292.32, -152.94, 9.39, 0.000, 0.000, 0.000, 17:27:41.132
51, 16.07, 264.02, -158.38, 9.29, 0.000, 0.000, 0.000, 17:27:41.148
52, 23.56, 272.76, -301.45, 13.58, 0.000, 0.000, 0.000, 17:27:41.148
53, 24.75, 295.81, -202.92, 12.17, 0.000, 0.000, 0.000, 17:27:41.149
54, 19.47, 275.85, -113.71, 11.98, 0.000, 0.000, 0.000, 17:27:41.149
55, 28.14, 277.13, -250.97, 9.27, 0.000, 0.000, 0.000, 17:27:41.163
56, 17.00, 288.42, -261.45, 12.77, 0.000, 0.000, 0.000, 17:27:41.163
57, 28.80, 266.97, -125.45, 11.95, 0.000, 0.000, 0.000, 17:27:41.178
58, 19.05, 248.10, -208.48, 5.58, 0.000, 0.000, 0.000, 17:27:41.178
59, 25.26, 269.04, -300.73, 11.19, 0.000, 0.000, 0.000, 17:27:41.178
60, 21.22, 268.46, -156.56, 5.85, 0.000, 0.000, 0.000, 17:27:41.178
61, 37.61, 233.97, -163.97, 7.47, 0.000, 0.000, 0.000, 17:27:41.192
62, 34.08, 239.71, -308.85, 3.06, 0.000, 0.000, 0.000, 17:27:41.193
63, 25.25, 261.48, -217.26, 7.60, 0.000, 0.000, 0.000, 17:27:41.208
64, 42.40, 240.78, -128.19, 7.97, 0.000, 0.000, 0.000, 17:27:41.208
65, 46.24, 240.13, -271.39, 7.15, 0.000, 0.000, 0.000, 17:27:41.208
66, 37.04, 258.51, -277.82, 9.58, 0.000, 0.000, 0.000, 17:27:41.208
67, 39.32, 249.57, -134.09, 12.27, 0.000, 0.000, 0.000, 17:27:41.222
68, 52.19, 235.37, -218.08, 9.05, 0.000, 0.000, 0.000, 17:27:41.223
69, 48.14, 261.56, -303.79, 7.39, 0.000, 0.000, 0.000, 17:27:41.238
70, 30.87, 264.63, -162.70, 9.71, 0.000, 0.000, 0.000, 17:27:41.238
71, 44.70, 251.64, -163.68, 11.27, 0.000, 0.000, 0.000, 17:27:41.238
72, 50.69, 272.25, -298.78, 11.20, 0.000, 0.000, 0.000, 17:27:41.238
73, 34.00, 281.22, -212.65, 9.38, 0.000, 0.000, 0.000, 17:27:41.252
74, 24.04, 257.38, -128.57, 9.32, 0.000, 0.000, 0.000, 17:27:41.253
75, 22.33, 261.54, -266.67, 13.62, 0.000, 0.000, 0.000, 17:27:41.268
76, 5.02, 282.05, -276.85, 12.70, 0.000, 0.000, 0.000, 17:27:41.268
77, 1.81, 276.37, -130.38, 9.70, 0.000, 0.000, 0.000, 17:27:41.268
78, -19.59, 262.39, -218.94, 9.20, 0.000, 0.000, 0.000, 17:27:41.268
79, -26.36, 281.09, -317.43, 11.16, 0.000, 0.000, 0.000, 17:27:41.282
80, -49.97, 276.67, -180.70, 10.43, 0.000, 0.000, 0.000, 17:27:41.283
81, -43.27, 260.24, -174.07, 10.14, 0.000, 0.000, 0.000, 17:27:41.298
82, -31.58, 267.91, -318.96, 8.71, 0.000, 0.000, 0.000, 17:27:41.298
83, -47.17, 276.42, -232.07, 9.52, 0.000, 0.000, 0.000, 17:27:41.298
84, -51.65, 256.63, -130.17, 8.39, 0.000, 0.000, 0.000, 17:27:41.298
85, -43.77, 257.79, -286.51, 12.52, 0.000, 0.000, 0.000, 17:27:41.313
86, -43.51, 283.56, -286.62, 7.94, 0.000, 0.000, 0.000, 17:27:41.313
87, -31.60, 276.45, -139.93, 10.57, 0.000, 0.000, 0.000, 17:27:41.328
88, -25.52, 255.20, -222.41, 9.24, 0.000, 0.000, 0.000, 17:27:41.328
89, 0.41, 279.41, -313.90, 13.34, 0.000, 0.000, 0.000, 17:27:41.328
90, -19.92, 282.76, -170.75, 4.87, 0.000, 0.000, 0.000, 17:27:41.328
91, -17.18, 261.73, -161.26, 14.73, 0.000, 0.000, 0.000, 17:27:41.343
92, 19.66, 273.12, -311.42, 8.28, 0.000, 0.000, 0.000, 17:27:41.343
93, -10.84, 285.92, -230.60, 10.36, 0.000, 0.000, 0.000, 17:27:41.358
94, 4.26, 270.25, -121.14, 8.25, 0.000, 0.000, 0.000, 17:27:41.358
95, 20.43, 267.84, -274.63, 9.95, 0.000, 0.000, 0.000, 17:27:41.358
96, 3.36, 293.34, -270.52, 10.01, 0.000, 0.000, 0.000, 17:27:41.358
97, -2.92, 275.50, -126.27, 13.93, 0.000, 0.000, 0.000, 17:27:41.373
98, 28.55, 255.80, -214.81, 8.96, 0.000, 0.000, 0.000, 17:27:41.373
99, 16.84, 278.85, -305.20, 9.71, 0.000, 0.000, 0.000, 17:27:41.387
100, 3.00, 285.52, -160.74, 12.79, 0.000, 0.000, 0.000, 17:27:41.388
101, 10.16, 252.60, -160.23, 9.29, 0.000, 0.000, 0.000, 17:27:41.388
102, 12.20, 267.65, -303.34, 11.98, 0.000, 0.000, 0.000, 17:27:41.388
103, 10.31, 275.39, -225.52, 5.62, 0.000, 0.000, 0.000, 17:27:41.402
104, 22.12, 257.51, -124.36, 7.75, 0.000, 0.000, 0.000, 17:27:41.402
105, 15.14, 246.08, -279.82, 12.64, 0.000, 0.000, 0.000, 17:27:41.418
106, 3.88, 271.93, -279.94, 8.28, 0.000, 0.000, 0.000, 17:27:41.418
107, 14.66, 256.21, -142.60, 3.15, 0.000, 0.000, 0.000, 17:27:41.419
108, 5.58, 241.97, -217.90, 9.85, 0.000, 0.000, 0.000, 17:27:41.419
109, 20.07, 255.26, -318.75, 7.80, 0.000, 0.000, 0.000, 17:27:41.433
110, 5.41, 266.97, -168.48, 5.97, 0.000, 0.000, 0.000, 17:27:41.433
111, 20.79, 248.94, -167.70, 8.80, 0.000, 0.000, 0.000, 17:27:41.448
112, 14.64, 264.76, -306.34, 9.91, 0.000, 0.000, 0.000, 17:27:41.449
113, -0.68, 286.93, -215.32, 9.55, 0.000, 0.000, 0.000, 17:27:41.449
114, 10.10, 273.16, -127.51, 11.65, 0.000, 0.000, 0.000, 17:27:41.449
115, 21.24, 270.54, -262.43, 8.89, 0.000, 0.000, 0.000, 17:27:41.462
116, 2.86, 292.14, -272.81, 6.88, 0.000, 0.000, 0.000, 17:27:41.463
117, 5.04, 279.58, -125.53, 8.14, 0.000, 0.000, 0.000, 17:27:41.478
118, 23.95, 271.32, -207.03, 7.93, 0.000, 0.000, 0.000, 17:27:41.478
119, 13.41, 291.44, -305.96, 9.65, 0.000, 0.000, 0.000, 17:27:41.478
120, 16.28, 289.81, -168.79, 6.15, 0.000, 0.000, 0.000, 17:27:41.479
121, -0.65, 266.84, -154.17, 8.53, 0.000, 0.000, 0.000, 17:27:41.492
122, 17.66, 263.90, -317.89, 7.23, 0.000, 0.000, 0.000, 17:27:41.493
123, 2.54, 282.10, -223.46, 8.01, 0.000, 0.000, 0.000, 17:27:41.508
124, 17.20, 252.02, -130.42, 9.71, 0.000, 0.000, 0.000, 17:27:41.508
125, 16.87, 240.73, -275.04, 10.53, 0.000, 0.000, 0.000, 17:27:41.508
126, 5.44, 267.96, -279.46, 8.32, 0.000, 0.000, 0.000, 17:27:41.509
127, 7.98, 254.01, -131.34, 5.46, 0.000, 0.000, 0.000, 17:27:41.523
128, 9.27, 235.24, -224.87, 8.83, 0.000, 0.000, 0.000, 17:27:41.523
129, 9.71, 252.47, -319.90, 8.59, 0.000, 0.000, 0.000, 17:27:41.538
130, 3.34, 254.40, -176.03, 11.87, 0.000, 0.000, 0.000, 17:27:41.538
131, 24.04, 231.19, -170.01, 7.74, 0.000, 0.000, 0.000, 17:27:41.539
132, 13.59, 255.41, -307.59, 12.55, 0.000, 0.000, 0.000, 17:27:41.539
133, -0.20, 277.01, -218.25, 9.34, 0.000, 0.000, 0.000, 17:27:41.552
134, 13.16, 274.06, -120.90, 11.97, 0.000, 0.000, 0.000, 17:27:41.553
135, 18.85, 270.20, -264.71, 10.22, 0.000, 0.000, 0.000, 17:27:41.567
136, 15.37, 300.83, -275.31, 10.31, 0.000, 0.000, 0.000, 17:27:41.568
137, -3.95, 296.99, -112.87, 6.68, 0.000, 0.000, 0.000, 17:27:41.568
138, 19.14, 282.99, -197.20, 7.76, 0.000, 0.000, 0.000, 17:27:41.568
139, 14.10, 299.77, -300.43, 9.77, 0.000, 0.000, 0.000, 17:27:41.582
140, 6.15, 294.61, -159.54, 5.48, 0.000, 0.000, 0.000, 17:27:41.583
141, 21.27, 272.30, -147.52, 13.28, 0.000, 0.000, 0.000, 17:27:41.597
142, 12.81, 280.77, -299.42, 9.12, 0.000, 0.000, 0.000, 17:27:41.597
143, 8.57, 285.65, -219.31, 9.84, 0.000, 0.000, 0.000, 17:27:41.598
144, -0.34, 259.63, -124.65, 7.99, 0.000, 0.000, 0.000, 17:27:41.598
145, 17.37, 242.60, -270.45, 10.19, 0.000, 0.000, 0.000, 17:27:41.612
146, 9.19, 257.29, -285.99, 5.85, 0.000, 0.000, 0.000, 17:27:41.612
147, -0.55, 255.93, -135.08, 16.39, 0.000, 0.000, 0.000, 17:27:41.628
148, 20.62, 238.80, -211.28, 12.44, 0.000, 0.000, 0.000, 17:27:41.628
149, 10.10, 268.59, -302.69, 10.40, 0.000, 0.000, 0.000, 17:27:41.629
150, 2.82, 258.50, -177.90, 7.33, 0.000, 0.000, 0.000, 17:27:41.629
151, 9.45, 245.76, -154.09, 10.84, 0.000, 0.000, 0.000, 17:27:41.642
152, 15.09, 259.50, -304.31, 9.51, 0.000, 0.000, 0.000, 17:27:41.643
153, 9.76, 282.01, -219.51, 8.50, 0.000, 0.000, 0.000, 17:27:41.658
154, 1.69, 259.24, -133.66, 11.35, 0.000, 0.000, 0.000, 17:27:41.658
155, 23.81, 264.66, -264.89, 11.83, 0.000, 0.000, 0.000, 17:27:41.658
156, 17.23, 293.17, -275.53, 9.17, 0.000, 0.000, 0.000, 17:27:41.659
157, 4.44, 289.00, -122.86, 12.85, 0.000, 0.000, 0.000, 17:27:41.673
158, 29.11, 273.11, -205.01, 12.10, 0.000, 0.000, 0.000, 17:27:41.673
159, 7.88, 291.06, -299.70, 9.15, 0.000, 0.000, 0.000, 17:27:41.688
160, 0.82, 294.54, -167.91, 9.68, 0.000, 0.000, 0.000, 17:27:41.688
161, 13.31, 268.33, -153.80, 9.35, 0.000, 0.000, 0.000, 17:27:41.688
162, 10.95, 261.23, -305.72, 11.84, 0.000, 0.000, 0.000, 17:27:41.689
163, 1.78, 290.21, -228.24, 10.87, 0.000, 0.000, 0.000, 17:27:41.702
164, 11.44, 276.62, -118.07, 7.14, 0.000, 0.000, 0.000, 17:27:41.703
165, 21.20, 262.60, -267.57, 9.06, 0.000, 0.000, 0.000, 17:27:41.718
166, 9.06, 292.45, -280.32, 12.85, 0.000, 0.000, 0.000, 17:27:41.718
167, 4.45, 284.39, -110.85, 11.33, 0.000, 0.000, 0.000, 17:27:41.718
168, 7.46, 262.13, -209.54, 6.89, 0.000, 0.000, 0.000, 17:27:41.718
169, 20.79, 285.79, -306.92, 11.05, 0.000, 0.000, 0.000, 17:27:41.732
170, 18.55, 288.47, -158.38, 10.36, 0.000, 0.000, 0.000, 17:27:41.732
171, 8.46, 266.08, -154.54, 13.12, 0.000, 0.000, 0.000, 17:27:41.748
172, 8.60, 289.98, -296.72, 9.21, 0.000, 0.000, 0.000, 17:27:41.748
173, 5.48, 308.65, -215.15, 10.30, 0.000, 0.000, 0.000, 17:27:41.748
174, 6.92, 290.49, -115.37, 11.45, 0.000, 0.000, 0.000, 17:27:41.748
175, 25.26, 286.86, -253.78, 10.66, 0.000, 0.000, 0.000, 17:27:41.763
176, 13.97, 308.12, -266.11, 7.37, 0.000, 0.000, 0.000, 17:27:41.763
177, 0.54, 295.45, -115.43, 9.65, 0.000, 0.000, 0.000, 17:27:41.777
178, 12.14, 291.79, -184.11, 7.65, 0.000, 0.000, 0.000, 17:27:41.778
179, 8.05, 306.35, -298.79, 14.43, 0.000, 0.000, 0.000, 17:27:41.778
180, 10.48, 305.14, -160.66, 7.68, 0.000, 0.000, 0.000, 17:27:41.778
181, 18.06, 266.16, -144.83, 9.94, 0.000, 0.000, 0.000, 17:27:41.792
182, 14.48, 274.86, -299.49, 11.24, 0.000, 0.000, 0.000, 17:27:41.792
183, 9.73, 294.63, -210.58, 10.69, 0.000, 0.000, 0.000, 17:27:41.807
184, 8.18, 266.56, -117.23, 6.98, 0.000, 0.000, 0.000, 17:27:41.808
185, 18.22, 256.90, -263.79, 12.36, 0.000, 0.000, 0.000, 17:27:41.823
186, 6.82, 280.74, -281.78, 6.92, 0.000, 0.000, 0.000, 17:27:41.823
187, 13.82, 264.72, -126.98, 10.04, 0.000, 0.000, 0.000, 17:27:41.823
188, 15.74, 251.50, -200.21, 11.21, 0.000, 0.000, 0.000, 17:27:41.824
189, 13.10, 273.91, -313.67, 12.13, 0.000, 0.000, 0.000, 17:27:41.838
190, 23.96, 285.72, -175.16, 11.11, 0.000, 0.000, 0.000, 17:27:41.838
191, 12.64, 261.61, -152.89, 9.15, 0.000, 0.000, 0.000, 17:27:41.839
192, 4.55, 276.21, -290.55, 9.76, 0.000, 0.000, 0.000, 17:27:41.839
193, 9.94, 291.46, -218.00, 6.36, 0.000, 0.000, 0.000, 17:27:41.853
194, 15.12, 278.28, -117.08, 8.67, 0.000, 0.000, 0.000, 17:27:41.853
195, 20.87, 279.15, -260.04, 8.52, 0.000, 0.000, 0.000, 17:27:41.867
196, -4.41, 299.08, -270.78, 7.95, 0.000, 0.000, 0.000, 17:27:41.867
197, 1.29, 281.27, -123.63, 7.85, 0.000, 0.000, 0.000, 17:27:41.868
198, 3.93, 255.47, -206.79, 7.58, 0.000, 0.000, 0.000, 17:27:41.868
199, 17.44, 282.22, -311.29, 9.93, 0.000, 0.000, 0.000, 17:27:41.882
200, 5.21, 293.52, -165.57, 9.53, 0.000, 0.000, 0.000, 17:27:41.883
0, 4.30, 262.62, -145.27, 13.94, 0.000, 0.000, 0.000, 17:27:41.883
1, 13.96, 267.51, -300.69, 8.72, 0.000, 0.000, 0.000, 17:27:41.897
2, 5.93, 280.29, -235.59, 8.98, 0.000, 0.000, 0.000, 17:27:41.898
3, 6.07, 249.41, -136.60, 9.86, 0.000, 0.000, 0.000, 17:27:41.913
4, 16.73, 247.87, -267.67, 11.09, 0.000, 0.000, 0.000, 17:27:41.913
5, 1.61, 275.71, -285.32, 9.32, 0.000, 0.000, 0.000, 17:27:41.913
6, 3.95, 275.43, -127.08, 11.48, 0.000, 0.000, 0.000, 17:27:41.914
7, -2.93, 254.12, -184.47, 10.32, 0.000, 0.000, 0.000, 17:27:41.927
8, 1.61, 262.17, -296.53, 7.75, 0.000, 0.000, 0.000, 17:27:41.928
9, 73.74, 273.53, -153.56, 4.72, 0.000, 0.000, 0.000, 17:27:41.943
10, 180.06, 246.82, -121.16, 12.91, 0.000, 0.000, 0.000, 17:27:41.943
11, 212.85, 254.07, -246.62, 7.12, 0.000, 0.000, 0.000, 17:27:41.944
12, 251.93, 269.17, -185.17, 5.31, 0.000, 0.000, 0.000, 17:27:41.944
13, 185.43, 246.53, -102.98, 7.82, 0.000, 0.000, 0.000, 17:27:41.957
14, -29.67, 248.53, -274.70, 11.20, 0.000, 0.000, 0.000, 17:27:41.958
15, -180.24, 278.77, -313.67, 13.19, 0.000, 0.000, 0.000, 17:27:41.972
16, -214.66, 280.01, -179.83, 9.59, 0.000, 0.000, 0.000, 17:27:41.972
17, -85.69, 259.32, -242.20, 11.00, 0.000, 0.000, 0.000, 17:27:41.973
18, -31.49, 288.45, -316.57, 11.09, 0.000, 0.000, 0.000, 17:27:41.973
19, -23.90, 285.90, -165.58, 14.00, 0.000, 0.000, 0.000, 17:27:41.988
20, -26.74, 247.90, -141.09, 8.47, 0.000, 0.000, 0.000, 17:27:41.988
21, -21.27, 255.91, -294.81, 10.11, 0.000, 0.000, 0.000, 17:27:42.002
22, -17.90, 274.21, -221.76, 8.61, 0.000, 0.000, 0.000, 17:27:42.003
23, -13.87, 253.96, -118.75, 8.07, 0.000, 0.000, 0.000, 17:27:42.003
24, 5.10, 246.96, -260.76, 9.23, 0.000, 0.000, 0.000, 17:27:42.003
25, 11.46, 267.92, -283.45, 10.68, 0.000, 0.000, 0.000, 17:27:42.017
26, -4.75, 259.49, -122.05, 8.82, 0.000, 0.000, 0.000, 17:27:42.018
27, 13.00, 235.46, -201.91, 11.21, 0.000, 0.000, 0.000, 17:27:42.033
28, 14.23, 262.73, -310.13, 6.52, 0.000, 0.000, 0.000, 17:27:42.033
29, 12.60, 275.77, -166.78, 7.84, 0.000, 0.000, 0.000, 17:27:42.033
30, 4.32, 252.80, -142.78, 8.63, 0.000, 0.000, 0.000, 17:27:42.033
31, 29.88, 265.74, -305.18, 8.58, 0.000, 0.000, 0.000, 17:27:42.047
32, 10.17, 295.18, -222.26, 9.38, 0.000, 0.000, 0.000, 17:27:42.048
33, 28.29, 273.91, -120.30, 11.25, 0.000, 0.000, 0.000, 17:27:42.063
34, 28.49, 270.57, -250.51, 10.65, 0.000, 0.000, 0.000, 17:27:42.063
35, 17.28, 284.78, -276.93, 10.66, 0.000, 0.000, 0.000, 17:27:42.063
36, 13.40, 275.80, -121.77, 11.50, 0.000, 0.000, 0.000, 17:27:42.063
37, 25.29, 257.06, -195.03, 11.34, 0.000, 0.000, 0.000, 17:27:42.078
38, 30.81, 284.27, -303.65, 13.51, 0.000, 0.000, 0.000, 17:27:42.079
39, 22.30, 274.20, -173.28, 15.25, 0.000, 0.000, 0.000, 17:27:42.092
40, 20.61, 247.56, -143.34, 7.82, 0.000, 0.000, 0.000, 17:27:42.093
41, 26.53, 250.74, -305.28, 9.21, 0.000, 0.000, 0.000, 17:27:42.093
42, 27.02, 268.72, -240.75, 8.37, 0.000, 0.000, 0.000, 17:27:42.093
43, 27.92, 261.80, -120.96, 7.20, 0.000, 0.000, 0.000, 17:27:42.108
44, 40.07, 246.05, -254.41, 9.62, 0.000, 0.000, 0.000, 17:27:42.108
45, 30.70, 280.05, -277.58, 8.07, 0.000, 0.000, 0.000, 17:27:42.123
46, 26.04, 263.17, -134.60, 12.65, 0.000, 0.000, 0.000, 17:27:42.123
47, 47.33, 253.40, -198.37, 7.52, 0.000, 0.000, 0.000, 17:27:42.124
48, 45.70, 279.51, -308.93, 7.53, 0.000, 0.000, 0.000, 17:27:42.124
49, 36.77, 286.18, -169.96, 9.46, 0.000, 0.000, 0.000, 17:27:42.138
50, 39.87, 258.43, -139.09, 10.69, 0.000, 0.000, 0.000, 17:27:42.138
51, 46.86, 270.64, -292.53, 9.01, 0.000, 0.000, 0.000, 17:27:42.152
52, 37.55, 295.78, -219.18, 9.75, 0.000, 0.000, 0.000, 17:27:42.152
53, 34.22, 269.29, -108.26, 6.61, 0.000, 0.000, 0.000, 17:27:42.153
54, 39.34, 263.81, -252.82, 11.21, 0.000, 0.000, 0.000, 17:27:42.153
55, 33.21, 285.06, -279.72, 15.63, 0.000, 0.000, 0.000, 17:27:42.167
56, 25.34, 274.19, -131.20, 8.03, 0.000, 0.000, 0.000, 17:27:42.168
57, 20.18, 246.30, -200.51, 10.11, 0.000, 0.000, 0.000, 17:27:42.183
58, 20.37, 267.76, -313.45, 11.64, 0.000, 0.000, 0.000, 17:27:42.183
59, -13.02, 272.40, -178.73, 10.93, 0.000, 0.000, 0.000, 17:27:42.184
60, -5.39, 246.78, -153.36, 8.20, 0.000, 0.000, 0.000, 17:27:42.184
61, -18.44, 250.25, -315.76, 10.03, 0.000, 0.000, 0.000, 17:27:42.198
62, -41.94, 272.94, -254.20, 8.43, 0.000, 0.000, 0.000, 17:27:42.198
63, -44.09, 255.78, -138.49, 12.37, 0.000, 0.000, 0.000, 17:27:42.212
64, -36.19, 249.00, -277.50, 10.77, 0.000, 0.000, 0.000, 17:27:42.213
65, -51.12, 274.26, -304.26, 8.05, 0.000, 0.000, 0.000, 17:27:42.213
66, -42.18, 263.60, -161.00, 9.25, 0.000, 0.000, 0.000, 17:27:42.213
67, -41.47, 248.88, -209.63, 13.07, 0.000, 0.000, 0.000, 17:27:42.228
68, -29.81, 269.82, -326.23, 8.14, 0.000, 0.000, 0.000, 17:27:42.228
69, -41.39, 291.13, -176.15, 12.87, 0.000, 0.000, 0.000, 17:27:42.243
70, -17.07, 273.78, -144.01, 7.71, 0.000, 0.000, 0.000, 17:27:42.243
71, -9.72, 272.46, -309.59, 9.75, 0.000, 0.000, 0.000, 17:27:42.243
72, -17.79, 297.35, -236.20, 10.78, 0.000, 0.000, 0.000, 17:27:42.243
73, 2.07, 284.50, -109.80, 9.26, 0.000, 0.000, 0.000, 17:27:42.257
74, 5.00, 270.24, -251.21, 10.28, 0.000, 0.000, 0.000, 17:27:42.257
75, -4.01, 308.31, -274.24, 14.23, 0.000, 0.000, 0.000, 17:27:42.272
76, 1.29, 290.77, -136.05, 9.85, 0.000, 0.000, 0.000, 17:27:42.273
77, 0.97, 266.21, -185.70, 11.57, 0.000, 0.000, 0.000, 17:27:42.273
78, 24.60, 281.31, -306.09, 12.30, 0.000, 0.000, 0.000, 17:27:42.273
79, 6.75, 278.81, -167.92, 12.06, 0.000, 0.000, 0.000, 17:27:42.288
80, 13.99, 238.89, -152.31, 8.46, 0.000, 0.000, 0.000, 17:27:42.288
81, 10.71, 249.31, -300.18, 12.90, 0.000, 0.000, 0.000, 17:27:42.303
82, -2.02, 268.85, -236.83, 13.92, 0.000, 0.000, 0.000, 17:27:42.303
83, 17.45, 249.36, -129.61, 8.25, 0.000, 0.000, 0.000, 17:27:42.303
84, 18.40, 237.19, -261.12, 9.09, 0.000, 0.000, 0.000, 17:27:42.303
85, 1.69, 266.33, -294.26, 10.27, 0.000, 0.000, 0.000, 17:27:42.318
86, 11.72, 260.89, -131.11, 1.07, 0.000, 0.000, 0.000, 17:27:42.318
87, 20.12, 235.65, -197.74, 8.51, 0.000, 0.000, 0.000, 17:27:42.333
88, 14.22, 272.30, -316.30, 4.80, 0.000, 0.000, 0.000, 17:27:42.333
89, 5.03, 281.45, -180.94, 13.15, 0.000, 0.000, 0.000, 17:27:42.333
90, 10.21, 267.96, -147.95, 9.78, 0.000, 0.000, 0.000, 17:27:42.334
91, 18.52, 287.20, -291.18, 12.88, 0.000, 0.000, 0.000, 17:27:42.348
92, 7.70, 304.10, -228.67, 9.46, 0.000, 0.000, 0.000, 17:27:42.348
93, 16.72, 292.98, -108.85, 11.58, 0.000, 0.000, 0.000, 17:27:42.363
94, 31.06, 274.09, -251.12, 9.61, 0.000, 0.000, 0.000, 17:27:42.363
95, 1.92, 298.18, -289.21, 11.01, 0.000, 0.000, 0.000, 17:27:42.363
96, 5.19, 284.23, -135.01, 8.40, 0.000, 0.000, 0.000, 17:27:42.363
97, 10.88, 263.62, -187.38, 11.38, 0.000, 0.000, 0.000, 17:27:42.377
98, 18.37, 281.27, -318.30, 5.79, 0.000, 0.000, 0.000, 17:27:42.378
99, 5.22, 274.83, -178.93, 13.83, 0.000, 0.000, 0.000, 17:27:42.393
100, 10.01, 252.39, -140.71, 13.51, 0.000, 0.000, 0.000, 17:27:42.393
101, 16.02, 257.86, -301.46, 9.24, 0.000, 0.000, 0.000, 17:27:42.393
102, 14.48, 268.75, -251.67, 11.78, 0.000, 0.000, 0.000, 17:27:42.394
103, 5.59, 257.76, -116.59, 8.33, 0.000, 0.000, 0.000, 17:27:42.408
104, 32.45, 241.52, -259.38, 6.08, 0.000, 0.000, 0.000, 17:27:42.408
105, 2.41, 272.05, -294.58, 11.10, 0.000, 0.000, 0.000, 17:27:42.423
106, 10.51, 277.99, -135.43, 13.88, 0.000, 0.000, 0.000, 17:27:42.423
107, 5.88, 259.93, -194.67, 10.89, 0.000, 0.000, 0.000, 17:27:42.423
108, 15.03, 275.07, -312.66, 8.50, 0.000, 0.000, 0.000, 17:27:42.423
109, 7.38, 284.57, -172.94, 9.75, 0.000, 0.000, 0.000, 17:27:42.437
110, 13.95, 254.02, -148.55, 6.15, 0.000, 0.000, 0.000, 17:27:42.437
111, 17.24, 262.18, -302.65, 9.87, 0.000, 0.000, 0.000, 17:27:42.452
112, -1.19, 284.52, -238.09, 14.03, 0.000, 0.000, 0.000, 17:27:42.452
113, 1.11, 264.93, -117.52, 10.90, 0.000, 0.000, 0.000, 17:27:42.453
114, 22.08, 263.09, -249.39, 10.56, 0.000, 0.000, 0.000, 17:27:42.453
115, 15.66, 282.38, -292.73, 12.23, 0.000, 0.000, 0.000, 17:27:42.468
116, 1.95, 274.70, -136.91, 13.17, 0.000, 0.000, 0.000, 17:27:42.468
117, 10.57, 248.08, -200.38, 8.11, 0.000, 0.000, 0.000, 17:27:42.483
118, 8.13, 272.84, -312.91, 9.57, 0.000, 0.000, 0.000, 17:27:42.483
119, 11.09, 276.96, -184.29, 7.73, 0.000, 0.000, 0.000, 17:27:42.497
120, 14.50, 255.66, -144.97, 12.15, 0.000, 0.000, 0.000, 17:27:42.498
121, 7.15, 265.94, -293.68, 12.45, 0.000, 0.000, 0.000, 17:27:42.498
122, 5.33, 276.76, -239.40, 8.90, 0.000, 0.000, 0.000, 17:27:42.498
123, 11.18, 267.72, -115.01, 10.47, 0.000, 0.000, 0.000, 17:27:42.512
124, 16.06, 266.97, -247.91, 10.05, 0.000, 0.000, 0.000, 17:27:42.512
125, 13.74, 277.14, -302.04, 4.87, 0.000, 0.000, 0.000, 17:27:42.513
126, 3.31, 274.43, -131.92, 12.33, 0.000, 0.000, 0.000, 17:27:42.513
127, 25.84, 259.34, -187.80, 12.73, 0.000, 0.000, 0.000, 17:27:42.528
128, 7.55, 281.21, -301.25, 8.25, 0.000, 0.000, 0.000, 17:27:42.528
129, 4.90, 278.75, -181.91, 9.78, 0.000, 0.000, 0.000, 17:27:42.543
130, 8.92, 261.85, -134.47, 11.05, 0.000, 0.000, 0.000, 17:27:42.543
131, 13.20, 256.64, -293.60, 9.53, 0.000, 0.000, 0.000, 17:27:42.543
132, 5.40, 279.87, -232.49, 4.67, 0.000, 0.000, 0.000, 17:27:42.544
133, 4.80, 272.21, -107.30, 9.19, 0.000, 0.000, 0.000, 17:27:42.558
134, 12.99, 266.87, -237.40, 14.49, 0.000, 0.000, 0.000, 17:27:42.558
135, 11.33, 288.74, -285.45, 12.66, 0.000, 0.000, 0.000, 17:27:42.573
136, 11.30, 275.11, -126.18, 12.10, 0.000, 0.000, 0.000, 17:27:42.573
137, 22.80, 260.75, -178.78, 10.53, 0.000, 0.000, 0.000, 17:27:42.573
138, 5.65, 265.85, -307.75, 11.11, 0.000, 0.000, 0.000, 17:27:42.573
139, 3.27, 264.41, -182.75, 11.64, 0.000, 0.000, 0.000, 17:27:42.588
140, 12.47, 235.96, -148.05, 7.26, 0.000, 0.000, 0.000, 17:27:42.588
141, 18.83, 251.85, -289.96, 10.78, 0.000, 0.000, 0.000, 17:27:42.606
142, 7.19, 271.02, -238.21, 9.14, 0.000, 0.000, 0.000, 17:27:42.607
143, 4.39, 262.06, -115.19, 8.45, 0.000, 0.000, 0.000, 17:27:42.607
144, 19.74, 248.46, -254.37, 3.37, 0.000, 0.000, 0.000, 17:27:42.607
145, 10.02, 278.13, -299.37, 9.56, 0.000, 0.000, 0.000, 17:27:42.618
146, 9.69, 275.39, -130.48, 7.19, 0.000, 0.000, 0.000, 17:27:42.618
147, 21.23, 259.70, -193.71, 9.79, 0.000, 0.000, 0.000, 17:27:42.633
148, 21.56, 277.92, -320.07, 11.66, 0.000, 0.000, 0.000, 17:27:42.633
149, 13.53, 298.98, -175.92, 10.26, 0.000, 0.000, 0.000, 17:27:42.633
150, 16.76, 270.07, -134.32, 10.64, 0.000, 0.000, 0.000, 17:27:42.634
151, 13.01, 272.42, -295.62, 9.72, 0.000, 0.000, 0.000, 17:27:42.648
152, 12.17, 294.08, -231.97, 11.24, 0.000, 0.000, 0.000, 17:27:42.648
153, 14.80, 272.17, -108.99, 11.85, 0.000, 0.000, 0.000, 17:27:42.663
154, 7.30, 263.88, -248.60, 13.22, 0.000, 0.000, 0.000, 17:27:42.663
155, -1.13, 282.87, -292.82, 9.24, 0.000, 0.000, 0.000, 17:27:42.663
156, -8.88, 275.53, -132.51, 6.59, 0.000, 0.000, 0.000, 17:27:42.664
157, 5.90, 250.29, -193.44, 13.80, 0.000, 0.000, 0.000, 17:27:42.678
158, 9.33, 268.30, -324.71, 9.29, 0.000, 0.000, 0.000, 17:27:42.678
159, 6.38, 274.59, -184.19, 8.30, 0.000, 0.000, 0.000, 17:27:42.692
160, 18.15, 254.99, -143.03, 9.53, 0.000, 0.000, 0.000, 17:27:42.692
161, 15.29, 253.16, -297.77, 11.44, 0.000, 0.000, 0.000, 17:27:42.693
162, 8.40, 280.88, -244.42, 11.72, 0.000, 0.000, 0.000, 17:27:42.693
163, 15.49, 262.59, -122.06, 12.39, 0.000, 0.000, 0.000, 17:27:42.707
164, 5.12, 259.91, -249.16, 1.60, 0.000, 0.000, 0.000, 17:27:42.707
165, 13.91, 292.05, -287.74, 6.71, 0.000, 0.000, 0.000, 17:27:42.722
166, -8.76, 280.85, -122.13, 12.69, 0.000, 0.000, 0.000, 17:27:42.722
167, 3.64, 268.78, -177.33, 10.87, 0.000, 0.000, 0.000, 17:27:42.723
168, -2.68, 277.29, -297.26, 9.76, 0.000, 0.000, 0.000, 17:27:42.723
169, 66.52, 287.27, -169.56, 9.69, 0.000, 0.000, 0.000, 17:27:42.738
170, 174.53, 247.50, -108.00, 12.17, 0.000, 0.000, 0.000, 17:27:42.738
171, 222.42, 248.29, -261.61, 14.78, 0.000, 0.000, 0.000, 17:27:42.753
172, 248.24, 270.79, -208.95, 13.11, 0.000, 0.000, 0.000, 17:27:42.753
173, 178.93, 257.41, -89.77, 11.80, 0.000, 0.000, 0.000, 17:27:42.754
174, -22.89, 249.60, -265.20, 6.08, 0.000, 0.000, 0.000, 17:27:42.754
175, -190.61, 276.26, -342.47, 11.18, 0.000, 0.000, 0.000, 17:27:42.767
176, -220.36, 282.12, -194.87, 5.57, 0.000, 0.000, 0.000, 17:27:42.767
177, -82.54, 268.80, -233.80, 11.69, 0.000, 0.000, 0.000, 17:27:42.798
178, -9.82, 282.17, -336.38, 10.29, 0.000, 0.000, 0.000, 17:27:42.798
179, -28.19, 287.68, -183.58, 9.60, 0.000, 0.000, 0.000, 17:27:42.799
180, -26.71, 249.80, -131.96, 10.55, 0.000, 0.000, 0.000, 17:27:42.799
181, -21.89, 264.82, -284.46, 7.29, 0.000, 0.000, 0.000, 17:27:42.800
182, -8.35, 289.73, -237.67, 6.63, 0.000, 0.000, 0.000, 17:27:42.800
183, -10.36, 266.39, -118.12, 9.19, 0.000, 0.000, 0.000, 17:27:42.812
184, 4.82, 254.10, -242.81, 6.24, 0.000, 0.000, 0.000, 17:27:42.812
185, 7.17, 283.91, -286.32, 9.79, 0.000, 0.000, 0.000, 17:27:42.813
186, -6.80, 277.73, -130.80, 9.77, 0.000, 0.000, 0.000, 17:27:42.813
187, 11.87, 253.99, -181.01, 9.52, 0.000, 0.000, 0.000, 17:27:42.828
188, 22.07, 275.00, -308.19, 9.31, 0.000, 0.000, 0.000, 17:27:42.828
189, 6.05, 285.97, -181.27, 10.46, 0.000, 0.000, 0.000, 17:27:42.843
190, 17.14, 263.71, -127.74, 15.05, 0.000, 0.000, 0.000, 17:27:42.843
191, 17.60, 266.48, -284.69, 14.62, 0.000, 0.000, 0.000, 17:27:42.843
192, 15.46, 288.78, -237.61, 7.15, 0.000, 0.000, 0.000, 17:27:42.843
193, 11.23, 263.43, -106.46, 12.98, 0.000, 0.000, 0.000, 17:27:42.857
194, 38.58, 248.45, -241.79, 6.63, 0.000, 0.000, 0.000, 17:27:42.857
195, 21.75, 278.71, -290.43, 13.15, 0.000, 0.000, 0.000, 17:27:42.873
196, 13.54, 271.21, -129.09, 10.82, 0.000, 0.000, 0.000, 17:27:42.874
197, 26.75, 249.45, -176.52, 11.34, 0.000, 0.000, 0.000, 17:27:42.874
198, 30.53, 259.11, -318.01, 8.95, 0.000, 0.000, 0.000, 17:27:42.874
199, 16.40, 274.18, -178.00, 5.80, 0.000, 0.000, 0.000, 17:27:42.888
200, 25.21, 245.42, -128.67, 8.90, 0.000, 0.000, 0.000, 17:27:42.888
0, 35.55, 245.88, -299.18, 16.00, 0.000, 0.000, 0.000, 17:27:42.888
1, 20.96, 265.61, -248.39, 12.15, 0.000, 0.000, 0.000, 17:27:42.902
2, 19.71, 247.14, -119.27, 9.54, 0.000, 0.000, 0.000, 17:27:42.902
3, 50.85, 239.03, -242.18, 11.36, 0.000, 0.000, 0.000, 17:27:42.917
4, 31.57, 263.46, -302.42, 11.63, 0.000, 0.000, 0.000, 17:27:42.917
5, 27.91, 265.10, -133.82, 6.11, 0.000, 0.000, 0.000, 17:27:42.918
6, 50.14, 242.61, -180.23, 8.52, 0.000, 0.000, 0.000, 17:27:42.918
7, 45.41, 255.72, -311.73, 5.08, 0.000, 0.000, 0.000, 17:27:42.933
8, 41.50, 269.08, -181.16, 8.24, 0.000, 0.000, 0.000, 17:27:42.933
9, 48.32, 261.58, -126.38, 13.22, 0.000, 0.000, 0.000, 17:27:42.948
10, 53.58, 263.85, -283.14, 12.86, 0.000, 0.000, 0.000, 17:27:42.949
11, 42.18, 286.14, -243.93, 12.21, 0.000, 0.000, 0.000, 17:27:42.949
12, 38.82, 269.75, -110.75, 12.53, 0.000, 0.000, 0.000, 17:27:42.949
13, 43.82, 258.37, -229.52, 11.98, 0.000, 0.000, 0.000, 17:27:42.963
14, 37.77, 278.02, -289.62, 13.01, 0.000, 0.000, 0.000, 17:27:42.963
15, 14.82, 268.07, -133.05, 7.50, 0.000, 0.000, 0.000, 17:27:42.977
16, 24.45, 245.88, -185.43, 4.62, 0.000, 0.000, 0.000, 17:27:42.978
17, 3.89, 261.81, -322.94, 8.81, 0.000, 0.000, 0.000, 17:27:42.978
18, -13.76, 268.73, -202.23, 12.81, 0.000, 0.000, 0.000, 17:27:42.978
19, -22.47, 239.87, -152.26, 7.18, 0.000, 0.000, 0.000, 17:27:42.993
20, -26.07, 254.32, -303.71, 4.85, 0.000, 0.000, 0.000, 17:27:42.993
21, -46.32, 270.05, -266.20, 14.08, 0.000, 0.000, 0.000, 17:27:43.008
22, -45.36, 249.22, -136.89, 11.16, 0.000, 0.000, 0.000, 17:27:43.008
23, -56.86, 259.23, -261.85, 9.19, 0.000, 0.000, 0.000, 17:27:43.008
24, -47.69, 291.62, -307.73, 7.24, 0.000, 0.000, 0.000, 17:27:43.009
25, -40.23, 288.72, -148.69, 8.66, 0.000, 0.000, 0.000, 17:27:43.023
26, -47.54, 271.70, -194.72, 10.91, 0.000, 0.000, 0.000, 17:27:43.023
27, -29.09, 298.69, -323.05, 9.75, 0.000, 0.000, 0.000, 17:27:43.038
28, -32.66, 305.02, -195.28, 7.69, 0.000, 0.000, 0.000, 17:27:43.038
29, -26.07, 277.02, -145.16, 10.11, 0.000, 0.000, 0.000, 17:27:43.038
30, 2.35, 287.02, -290.29, 9.21, 0.000, 0.000, 0.000, 17:27:43.038
31, -9.69, 305.94, -247.27, 10.99, 0.000, 0.000, 0.000, 17:27:43.052
32, -9.49, 278.86, -117.97, 10.91, 0.000, 0.000, 0.000, 17:27:43.053
33, 7.57, 259.88, -244.08, 10.19, 0.000, 0.000, 0.000, 17:27:43.068
34, 7.56, 283.39, -306.65, 12.30, 0.000, 0.000, 0.000, 17:27:43.068
35, -5.25, 277.90, -140.05, 12.09, 0.000, 0.000, 0.000, 17:27:43.068
36, 4.01, 236.29, -196.00, 5.86, 0.000, 0.000, 0.000, 17:27:43.068
37, 19.33, 264.41, -323.53, 9.68, 0.000, 0.000, 0.000, 17:27:43.082
38, 0.24, 279.09, -190.44, 11.50, 0.000, 0.000, 0.000, 17:27:43.083
39, 11.77, 250.25, -138.31, 10.02, 0.000, 0.000, 0.000, 17:27:43.098
40, 15.72, 263.16, -294.13, 8.88, 0.000, 0.000, 0.000, 17:27:43.098
41, 5.89, 288.75, -253.87, 9.80, 0.000, 0.000, 0.000, 17:27:43.098
42, 13.85, 270.09, -120.18, 10.26, 0.000, 0.000, 0.000, 17:27:43.098
43, 14.62, 257.91, -246.64, 8.44, 0.000, 0.000, 0.000, 17:27:43.113
44, 20.33, 287.01, -305.21, 10.36, 0.000, 0.000, 0.000, 17:27:43.113
45, -5.25, 290.40, -133.57, 9.77, 0.000, 0.000, 0.000, 17:27:43.128
46, 26.92, 264.75, -180.78, 10.26, 0.000, 0.000, 0.000, 17:27:43.128
47, 8.49, 279.49, -310.53, 6.32, 0.000, 0.000, 0.000, 17:27:43.129
48, 13.92, 282.14, -190.56, 9.47, 0.000, 0.000, 0.000, 17:27:43.129
49, 23.72, 259.56, -136.50, 13.23, 0.000, 0.000, 0.000, 17:27:43.142
50, 15.33, 262.92, -290.92, 11.64, 0.000, 0.000, 0.000, 17:27:43.142
51, 4.30, 279.57, -254.01, 10.06, 0.000, 0.000, 0.000, 17:27:43.157
52, 16.00, 264.99, -122.68, 8.01, 0.000, 0.000, 0.000, 17:27:43.158
53, 12.01, 252.83, -243.06, 8.89, 0.000, 0.000, 0.000, 17:27:43.158
54, 19.12, 278.19, -297.41, 9.18, 0.000, 0.000, 0.000, 17:27:43.158
55, -0.69, 267.06, -150.22, 8.87, 0.000, 0.000, 0.000, 17:27:43.173
56, 18.08, 255.62, -178.60, 11.60, 0.000, 0.000, 0.000, 17:27:43.173
57, 19.11, 262.83, -321.61, 9.95, 0.000, 0.000, 0.000, 17:27:43.188
58, -2.30, 277.58, -191.75, 9.69, 0.000, 0.000, 0.000, 17:27:43.188
59, 3.20, 252.84, -126.79, 12.46, 0.000, 0.000, 0.000, 17:27:43.188
60, 23.21, 251.48, -300.02, 10.74, 0.000, 0.000, 0.000, 17:27:43.188
61, 22.13, 279.26, -252.62, 9.52, 0.000, 0.000, 0.000, 17:27:43.202
62, -0.15, 270.51, -111.83, 6.72, 0.000, 0.000, 0.000, 17:27:43.203
63, 17.65, 258.29, -236.22, 10.19, 0.000, 0.000, 0.000, 17:27:43.218
64, 24.01, 282.98, -298.50, 10.20, 0.000, 0.000, 0.000, 17:27:43.218
65, -4.04, 283.61, -132.20, 13.98, 0.000, 0.000, 0.000, 17:27:43.218
66, 14.27, 257.37, -177.84, 8.21, 0.000, 0.000, 0.000, 17:27:43.219
67, 11.66, 272.65, -310.16, 9.07, 0.000, 0.000, 0.000, 17:27:43.233
68, 1.92, 290.45, -188.41, 9.06, 0.000, 0.000, 0.000, 17:27:43.233
69, 19.52, 264.51, -127.71, 11.87, 0.000, 0.000, 0.000, 17:27:43.248
70, 15.56, 268.27, -289.18, 7.87, 0.000, 0.000, 0.000, 17:27:43.248
71, 0.05, 285.42, -248.63, 4.91, 0.000, 0.000, 0.000, 17:27:43.248
72, 16.92, 268.90, -115.11, 4.25, 0.000, 0.000, 0.000, 17:27:43.248
73, 6.30, 244.57, -244.98, 13.21, 0.000, 0.000, 0.000, 17:27:43.263
74, 9.41, 272.11, -301.50, 9.14, 0.000, 0.000, 0.000, 17:27:43.263
75, -0.64, 256.81, -156.73, 9.58, 0.000, 0.000, 0.000, 17:27:43.277
76, 20.47, 244.90, -173.28, 10.41, 0.000, 0.000, 0.000, 17:27:43.277
77, 18.97, 269.87, -310.77, 10.73, 0.000, 0.000, 0.000, 17:27:43.278
78, 11.23, 283.05, -188.64, 14.28, 0.000, 0.000, 0.000, 17:27:43.278
79, 4.96, 253.21, -132.63, 15.36, 0.000, 0.000, 0.000, 17:27:43.293
80, 10.74, 262.05, -288.17, 9.99, 0.000, 0.000, 0.000, 17:27:43.293
81, 9.08, 279.94, -252.76, 9.36, 0.000, 0.000, 0.000, 17:27:43.307
82, 15.45, 268.60, -114.99, 7.08, 0.000, 0.000, 0.000, 17:27:43.308
83, 17.92, 258.08, -235.74, 6.31, 0.000, 0.000, 0.000, 17:27:43.308
84, 17.36, 279.45, -295.87, 7.61, 0.000, 0.000, 0.000, 17:27:43.308
85, 7.44, 280.42, -140.19, 10.42, 0.000, 0.000, 0.000, 17:27:43.338
86, 14.77, 262.63, -164.19, 10.54, 0.000, 0.000, 0.000, 17:27:43.338
87, 15.52, 271.34, -307.26, 10.92, 0.000, 0.000, 0.000, 17:27:43.338
88, 3.24, 294.09, -185.24, 8.13, 0.000, 0.000, 0.000, 17:27:43.338
89, 7.37, 263.32, -123.89, 12.95, 0.000, 0.000, 0.000, 17:27:43.339
90, 20.46, 258.81, -288.02, 7.91, 0.000, 0.000, 0.000, 17:27:43.339
91, -0.89, 274.72, -253.92, 12.74, 0.000, 0.000, 0.000, 17:27:43.352
92, 7.95, 267.20, -103.16, 10.86, 0.000, 0.000, 0.000, 17:27:43.353
93, 6.35, 247.16, -233.52, 8.09, 0.000, 0.000, 0.000, 17:27:43.368
94, 24.99, 269.06, -303.21, 5.84, 0.000, 0.000, 0.000, 17:27:43.368
95, 9.91, 267.14, -146.93, 12.38, 0.000, 0.000, 0.000, 17:27:43.368
96, 19.54, 236.81, -185.38, 11.86, 0.000, 0.000, 0.000, 17:27:43.368
97, 23.63, 259.64, -316.51, 7.44, 0.000, 0.000, 0.000, 17:27:43.383
98, 16.97, 262.64, -203.82, 6.91, 0.000, 0.000, 0.000, 17:27:43.383
99, 12.83, 246.29, -134.43, 10.60, 0.000, 0.000, 0.000, 17:27:43.398
100, 24.54, 261.73, -290.17, 10.22, 0.000, 0.000, 0.000, 17:27:43.398
101, 10.14, 292.98, -254.32, 14.71, 0.000, 0.000, 0.000, 17:27:43.398
102, 3.14, 278.49, -121.08, 9.25, 0.000, 0.000, 0.000, 17:27:43.398
103, 5.05, 264.44, -240.47, 16.43, 0.000, 0.000, 0.000, 17:27:43.412
104, 18.56, 288.65, -299.97, 8.34, 0.000, 0.000, 0.000, 17:27:43.413
105, -3.90, 290.49, -144.48, 10.87, 0.000, 0.000, 0.000, 17:27:43.428
106, 9.66, 272.51, -176.59, 6.18, 0.000, 0.000, 0.000, 17:27:43.428
107, 2.64, 293.06, -305.60, 5.99, 0.000, 0.000, 0.000, 17:27:43.429
108, 7.80, 302.93, -195.16, 9.98, 0.000, 0.000, 0.000, 17:27:43.429
109, 5.89, 279.29, -122.35, 10.59, 0.000, 0.000, 0.000, 17:27:43.442
110, 14.51, 272.38, -289.43, 9.01, 0.000, 0.000, 0.000, 17:27:43.443
111, 8.82, 291.77, -257.05, 9.56, 0.000, 0.000, 0.000, 17:27:43.458
112, 5.63, 281.42, -110.43, 11.82, 0.000, 0.000, 0.000, 17:27:43.458
113, 21.25, 254.01, -236.44, 13.14, 0.000, 0.000, 0.000, 17:27:43.458
114, 0.88, 281.51, -304.22, 13.21, 0.000, 0.000, 0.000, 17:27:43.459
115, -1.48, 282.26, -142.70, 14.04, 0.000, 0.000, 0.000, 17:27:43.472
116, 9.50, 259.65, -177.68, 7.91, 0.000, 0.000, 0.000, 17:27:43.472
117, 14.94, 275.93, -296.72, 14.52, 0.000, 0.000, 0.000, 17:27:43.488
118, -3.03, 281.97, -175.45, 11.18, 0.000, 0.000, 0.000, 17:27:43.488
119, 87.53, 258.56, -109.90, 7.96, 0.000, 0.000, 0.000, 17:27:43.488
120, 168.87, 259.48, -254.33, 5.04, 0.000, 0.000, 0.000, 17:27:43.488
121, 229.95, 276.86, -209.74, 6.53, 0.000, 0.000, 0.000, 17:27:43.503
122, 234.93, 252.33, -70.00, 8.33, 0.000, 0.000, 0.000, 17:27:43.503
123, 147.23, 234.19, -210.71, 13.55, 0.000, 0.000, 0.000, 17:27:43.518
124, -80.41, 263.43, -319.80, 9.90, 0.000, 0.000, 0.000, 17:27:43.518
125, -209.52, 276.73, -188.27, 8.85, 0.000, 0.000, 0.000, 17:27:43.518
126, -193.53, 264.98, -226.56, 7.93, 0.000, 0.000, 0.000, 17:27:43.518
127, -69.21, 285.51, -347.21, 10.62, 0.000, 0.000, 0.000, 17:27:43.532
128, -4.70, 296.94, -213.36, 12.53, 0.000, 0.000, 0.000, 17:27:43.533
129, -0.21, 276.64, -126.37, 11.98, 0.000, 0.000, 0.000, 17:27:43.547
130, -17.53, 273.02, -272.15, 7.34, 0.000, 0.000, 0.000, 17:27:43.548
131, -17.38, 286.26, -247.45, 11.29, 0.000, 0.000, 0.000, 17:27:43.548
132, -16.96, 265.99, -111.01, 10.52, 0.000, 0.000, 0.000, 17:27:43.548
133, 2.37, 254.86, -227.72, 9.00, 0.000, 0.000, 0.000, 17:27:43.563
134, -1.32, 269.32, -295.93, 10.98, 0.000, 0.000, 0.000, 17:27:43.563
135, -0.56, 273.46, -139.49, 10.38, 0.000, 0.000, 0.000, 17:27:43.578
136, 13.23, 250.95, -172.01, 12.83, 0.000, 0.000, 0.000, 17:27:43.578
137, 20.61, 262.18, -321.25, 10.80, 0.000, 0.000, 0.000, 17:27:43.578
138, 5.09, 279.55, -200.14, 9.80, 0.000, 0.000, 0.000, 17:27:43.578
139, 17.94, 258.96, -128.01, 8.92, 0.000, 0.000, 0.000, 17:27:43.593
140, 21.79, 266.48, -278.62, 8.09, 0.000, 0.000, 0.000, 17:27:43.593
141, 13.61, 286.35, -252.89, 11.52, 0.000, 0.000, 0.000, 17:27:43.608
142, 13.51, 260.29, -116.02, 8.25, 0.000, 0.000, 0.000, 17:27:43.608
143, 25.51, 246.35, -222.87, 14.03, 0.000, 0.000, 0.000, 17:27:43.609
144, 23.71, 268.66, -303.16, 9.45, 0.000, 0.000, 0.000, 17:27:43.610
145, 12.52, 271.11, -139.04, 10.20, 0.000, 0.000, 0.000, 17:27:43.623
146, 27.67, 250.73, -161.21, 11.83, 0.000, 0.000, 0.000, 17:27:43.623
147, 34.23, 260.74, -307.64, 9.02, 0.000, 0.000, 0.000, 17:27:43.637
148, 17.19, 279.66, -189.74, 7.09, 0.000, 0.000, 0.000, 17:27:43.638
149, 24.51, 257.72, -126.53, 10.97, 0.000, 0.000, 0.000, 17:27:43.638
150, 25.33, 266.02, -280.31, 8.41, 0.000, 0.000, 0.000, 17:27:43.638
151, 35.43, 286.37, -259.91, 9.51, 0.000, 0.000, 0.000, 17:27:43.653
152, 24.17, 267.29, -115.28, 12.58, 0.000, 0.000, 0.000, 17:27:43.653
153, 32.38, 264.32, -226.67, 6.44, 0.000, 0.000, 0.000, 17:27:43.668
154, 31.93, 279.20, -294.21, 6.76, 0.000, 0.000, 0.000, 17:27:43.668
155, 26.60, 279.39, -142.25, 11.79, 0.000, 0.000, 0.000, 17:27:43.668
156, 51.21, 253.76, -169.34, 9.66, 0.000, 0.000, 0.000, 17:27:43.669
157, 42.84, 263.98, -307.85, 10.00, 0.000, 0.000, 0.000, 17:27:43.683
158, 32.95, 280.49, -191.94, 12.97, 0.000, 0.000, 0.000, 17:27:43.683
159, 51.48, 256.83, -133.47, 14.33, 0.000, 0.000, 0.000, 17:27:43.697
160, 57.84, 259.16, -277.81, 9.62, 0.000, 0.000, 0.000, 17:27:43.698
161, 44.85, 281.18, -252.45, 6.13, 0.000, 0.000, 0.000, 17:27:43.698
162, 33.67, 264.41, -109.04, 8.85, 0.000, 0.000, 0.000, 17:27:43.698
163, 47.11, 260.04, -224.46, 11.11, 0.000, 0.000, 0.000, 17:27:43.712
164, 35.52, 275.23, -302.20, 11.30, 0.000, 0.000, 0.000, 17:27:43.713
165, 26.03, 274.85, -149.98, 10.02, 0.000, 0.000, 0.000, 17:27:43.727
166, 26.88, 265.02, -161.15, 10.13, 0.000, 0.000, 0.000, 17:27:43.727
167, 12.61, 271.95, -304.74, 7.49, 0.000, 0.000, 0.000, 17:27:43.728
168, -14.61, 280.73, -197.98, 12.04, 0.000, 0.000, 0.000, 17:27:43.728
169, -11.34, 252.27, -135.47, 9.96, 0.000, 0.000, 0.000, 17:27:43.742
170, -15.41, 250.22, -294.79, 5.89, 0.000, 0.000, 0.000, 17:27:43.742
171, -41.27, 279.16, -268.62, 4.75, 0.000, 0.000, 0.000, 17:27:43.758
172, -48.22, 258.58, -133.26, 10.73, 0.000, 0.000, 0.000, 17:27:43.758
173, -44.15, 258.90, -240.10, 12.68, 0.000, 0.000, 0.000, 17:27:43.759
174, -49.10, 272.95, -320.13, 10.34, 0.000, 0.000, 0.000, 17:27:43.759
175, -67.07, 266.40, -165.45, 10.99, 0.000, 0.000, 0.000, 17:27:43.772
176, -49.25, 253.52, -179.15, 6.27, 0.000, 0.000, 0.000, 17:27:43.773
177, -26.33, 274.02, -328.05, 11.01, 0.000, 0.000, 0.000, 17:27:43.788
178, -33.02, 293.94, -211.52, 8.57, 0.000, 0.000, 0.000, 17:27:43.788
179, -32.78, 256.04, -150.97, 7.87, 0.000, 0.000, 0.000, 17:27:43.788
180, -0.41, 257.59, -292.43, 11.05, 0.000, 0.000, 0.000, 17:27:43.789
181, -17.08, 286.93, -261.81, 6.86, 0.000, 0.000, 0.000, 17:27:43.802
182, -8.14, 275.69, -121.11, 7.31, 0.000, 0.000, 0.000, 17:27:43.803
183, 0.04, 270.61, -219.89, 10.13, 0.000, 0.000, 0.000, 17:27:43.817
184, 0.77, 289.21, -299.09, 6.95, 0.000, 0.000, 0.000, 17:27:43.818
185, -2.50, 285.66, -146.26, 8.21, 0.000, 0.000, 0.000, 17:27:43.818
186, 8.75, 260.74, -163.31, 10.39, 0.000, 0.000, 0.000, 17:27:43.818
187, 15.34, 261.70, -323.51, 15.33, 0.000, 0.000, 0.000, 17:27:43.832
188, -1.05, 289.01, -202.98, 13.09, 0.000, 0.000, 0.000, 17:27:43.833
189, 12.48, 256.24, -130.92, 12.75, 0.000, 0.000, 0.000, 17:27:43.847
190, 22.16, 256.79, -283.71, 11.31, 0.000, 0.000, 0.000, 17:27:43.848
191, 5.13, 274.15, -263.36, 5.81, 0.000, 0.000, 0.000, 17:27:43.848
192, 8.85, 265.79, -117.89, 7.93, 0.000, 0.000, 0.000, 17:27:43.848
193, 16.83, 246.84, -233.24, 11.96, 0.000, 0.000, 0.000, 17:27:43.862
194, 8.18, 274.12, -303.02, 8.83, 0.000, 0.000, 0.000, 17:27:43.863
195, 11.68, 270.34, -147.57, 8.74, 0.000, 0.000, 0.000, 17:27:43.878
196, 10.57, 254.78, -158.28, 12.85, 0.000, 0.000, 0.000, 17:27:43.878
197, 17.84, 265.99, -311.40, 9.74, 0.000, 0.000, 0.000, 17:27:43.878
198, 10.99, 282.43, -202.83, 11.28, 0.000, 0.000, 0.000, 17:27:43.878
199, 20.26, 260.81, -129.50, 8.10, 0.000, 0.000, 0.000, 17:27:43.893
200, 15.31, 255.04, -284.04, 11.75, 0.000, 0.000, 0.000, 17:27:43.893
0, 23.42, 275.42, -273.23, 12.83, 0.000, 0.000, 0.000, 17:27:43.893
1, 7.44, 272.63, -121.81, 11.72, 0.000, 0.000, 0.000, 17:27:43.908
2, 8.66, 261.35, -224.85, 7.82, 0.000, 0.000, 0.000, 17:27:43.909
3, 11.92, 278.12, -313.41, 9.10, 0.000, 0.000, 0.000, 17:27:43.923
4, 9.34, 278.66, -143.37, 8.08, 0.000, 0.000, 0.000, 17:27:43.923
5, 7.86, 249.21, -174.69, 9.51, 0.000, 0.000, 0.000, 17:27:43.923
6, 30.30, 262.84, -309.69, 12.90, 0.000, 0.000, 0.000, 17:27:43.924
7, 6.30, 281.36, -206.09, 7.72, 0.000, 0.000, 0.000, 17:27:43.938
8, 11.32, 248.75, -134.15, 9.40, 0.000, 0.000, 0.000, 17:27:43.938
9, 1.37, 248.53, -283.79, 13.69, 0.000, 0.000, 0.000, 17:27:43.952
10, 7.49, 270.40, -263.22, 10.69, 0.000, 0.000, 0.000, 17:27:43.953
11, 20.23, 257.06, -119.57, 11.02, 0.000, 0.000, 0.000, 17:27:43.953
12, 10.43, 241.69, -227.49, 10.20, 0.000, 0.000, 0.000, 17:27:43.954
13, 16.22, 265.66, -310.64, 11.19, 0.000, 0.000, 0.000, 17:27:43.968
14, 7.46, 273.83, -156.71, 7.89, 0.000, 0.000, 0.000, 17:27:43.968
15, 9.12, 255.29, -169.63, 9.53, 0.000, 0.000, 0.000, 17:27:43.983
16, 20.30, 271.94, -311.39, 8.11, 0.000, 0.000, 0.000, 17:27:43.983
17, 1.11, 290.06, -202.27, 12.72, 0.000, 0.000, 0.000, 17:27:43.984
18, 13.38, 268.53, -123.59, 12.70, 0.000, 0.000, 0.000, 17:27:43.984
19, 19.71, 271.43, -271.61, 8.69, 0.000, 0.000, 0.000, 17:27:43.998
20, 9.02, 292.25, -256.53, 6.66, 0.000, 0.000, 0.000, 17:27:43.998
21, 10.92, 270.22, -114.86, 9.83, 0.000, 0.000, 0.000, 17:27:44.012
22, 14.74, 254.89, -231.76, 7.38, 0.000, 0.000, 0.000, 17:27:44.013
23, 6.93, 275.27, -306.58, 12.18, 0.000, 0.000, 0.000, 17:27:44.013
24, 14.45, 282.19, -145.24, 7.59, 0.000, 0.000, 0.000, 17:27:44.013
25, 6.79, 252.13, -164.65, 12.74, 0.000, 0.000, 0.000, 17:27:44.028
26, 11.54, 258.56, -318.10, 6.80, 0.000, 0.000, 0.000, 17:27:44.028
27, 15.97, 277.71, -208.53, 8.27, 0.000, 0.000, 0.000, 17:27:44.042
28, 2.33, 251.79, -126.96, 7.03, 0.000, 0.000, 0.000, 17:27:44.043
29, 11.81, 252.63, -285.04, 12.94, 0.000, 0.000, 0.000, 17:27:44.043
30, 5.03, 278.87, -272.48, 9.54, 0.000, 0.000, 0.000, 17:27:44.043
31, 8.11, 266.14, -121.50, 9.75, 0.000, 0.000, 0.000, 17:27:44.057
32, 18.23, 257.67, -218.08, 8.75, 0.000, 0.000, 0.000, 17:27:44.058
33, 5.05, 282.76, -302.92, 11.42, 0.000, 0.000, 0.000, 17:27:44.073
34, 2.52, 284.95, -148.43, 9.30, 0.000, 0.000, 0.000, 17:27:44.073
35, 13.38, 262.01, -153.24, 13.95, 0.000, 0.000, 0.000, 17:27:44.073
36, 18.09, 273.47, -309.63, 9.52, 0.000, 0.000, 0.000, 17:27:44.073
37, 8.26, 291.65, -200.95, 9.74, 0.000, 0.000, 0.000, 17:27:44.088
38, 2.07, 281.56, -104.53, 6.05, 0.000, 0.000, 0.000, 17:27:44.088
39, 23.31, 270.23, -266.79, 12.79, 0.000, 0.000, 0.000, 17:27:44.103
40, 3.26, 289.73, -262.27, 9.56, 0.000, 0.000, 0.000, 17:27:44.103
41, 14.30, 267.68, -113.18, 9.96, 0.000, 0.000, 0.000, 17:27:44.104
42, 16.06, 255.59, -214.80, 12.46, 0.000, 0.000, 0.000, 17:27:44.104
43, 22.04, 272.50, -309.06, 10.72, 0.000, 0.000, 0.000, 17:27:44.117
44, 14.90, 278.47, -150.72, 7.40, 0.000, 0.000, 0.000, 17:27:44.118
45, 29.17, 244.62, -165.33, 10.79, 0.000, 0.000, 0.000, 17:27:44.132
46, 21.94, 257.65, -316.41, 7.90, 0.000, 0.000, 0.000, 17:27:44.133
47, 5.97, 272.09, -210.89, 8.33, 0.000, 0.000, 0.000, 17:27:44.133
48, -6.53, 249.21, -126.54, 13.90, 0.000, 0.000, 0.000, 17:27:44.133
49, 24.49, 249.11, -277.15, 8.38, 0.000, 0.000, 0.000, 17:27:44.147
50, 13.58, 270.05, -280.86, 7.53, 0.000, 0.000, 0.000, 17:27:44.148
51, -7.37, 254.49, -130.23, 10.17, 0.000, 0.000, 0.000, 17:27:44.162
52, 10.07, 247.54, -231.30, 11.45, 0.000, 0.000, 0.000, 17:27:44.163
53, -6.60, 272.23, -306.37, 8.79, 0.000, 0.000, 0.000, 17:27:44.163
54, -9.82, 273.86, -152.90, 12.20, 0.000, 0.000, 0.000, 17:27:44.163
55, 18.33, 252.89, -168.16, 9.99, 0.000, 0.000, 0.000, 17:27:44.177
56, 14.28, 271.67, -314.33, 8.95, 0.000, 0.000, 0.000, 17:27:44.178
57, 5.65, 282.88, -212.11, 6.11, 0.000, 0.000, 0.000, 17:27:44.193
58, 21.66, 269.35, -115.23, 13.70, 0.000, 0.000, 0.000, 17:27:44.193
59, 8.69, 267.65, -274.44, 17.38, 0.000, 0.000, 0.000, 17:27:44.193
60, 5.07, 290.82, -265.21, 10.06, 0.000, 0.000, 0.000, 17:27:44.193
61, 9.24, 271.41, -116.94, 7.81, 0.000, 0.000, 0.000, 17:27:44.207
62, 2.15, 257.57, -216.00, 12.14, 0.000, 0.000, 0.000, 17:27:44.207
63, 18.16, 275.86, -305.14, 11.41, 0.000, 0.000, 0.000, 17:27:44.222
64, -12.20, 276.33, -139.38, 8.75, 0.000, 0.000, 0.000, 17:27:44.223
65, 5.88, 249.85, -143.78, 9.25, 0.000, 0.000, 0.000, 17:27:44.223
66, 112.73, 256.63, -294.08, 7.27, 0.000, 0.000, 0.000, 17:27:44.223
67, 178.98, 267.46, -177.53, 7.55, 0.000, 0.000, 0.000, 17:27:44.238
68, 225.54, 241.62, -79.48, 10.52, 0.000, 0.000, 0.000, 17:27:44.239
69, 246.00, 238.56, -238.90, 9.56, 0.000, 0.000, 0.000, 17:27:44.253
70, 119.59, 259.00, -262.71, 10.00, 0.000, 0.000, 0.000, 17:27:44.253
71, -89.56, 251.03, -150.89, 9.15, 0.000, 0.000, 0.000, 17:27:44.253
72, -212.57, 243.26, -278.65, 9.02, 0.000, 0.000, 0.000, 17:27:44.253
73, -178.17, 274.93, -371.54, 10.13, 0.000, 0.000, 0.000, 17:27:44.267
74, -69.60, 285.37, -189.90, 10.48, 0.000, 0.000, 0.000, 17:27:44.268
75, -0.84, 261.09, -182.64, 11.17, 0.000, 0.000, 0.000, 17:27:44.282
76, -20.09, 271.78, -312.68, 9.46, 0.000, 0.000, 0.000, 17:27:44.282
77, -17.78, 290.26, -202.26, 11.24, 0.000, 0.000, 0.000, 17:27:44.283
78, -16.42, 270.89, -116.67, 11.87, 0.000, 0.000, 0.000, 17:27:44.283
79, 1.31, 270.43, -264.40, 6.50, 0.000, 0.000, 0.000, 17:27:44.297
80, -16.31, 288.81, -265.82, 5.89, 0.000, 0.000, 0.000, 17:27:44.298
81, -3.09, 274.04, -114.04, 8.68, 0.000, 0.000, 0.000, 17:27:44.313
82, 16.21, 262.43, -215.11, 13.13, 0.000, 0.000, 0.000, 17:27:44.313
83, 11.76, 281.00, -304.76, 7.53, 0.000, 0.000, 0.000, 17:27:44.327
84, 3.93, 277.15, -148.73, 10.61, 0.000, 0.000, 0.000, 17:27:44.327
85, 18.01, 255.25, -147.94, 9.58, 0.000, 0.000, 0.000, 17:27:44.328
86, 17.72, 263.60, -306.56, 8.72, 0.000, 0.000, 0.000, 17:27:44.328
87, 13.71, 273.50, -208.77, 13.79, 0.000, 0.000, 0.000, 17:27:44.343
88, 11.58, 244.30, -124.54, 11.92, 0.000, 0.000, 0.000, 17:27:44.343
89, 26.59, 250.42, -278.79, 7.25, 0.000, 0.000, 0.000, 17:27:44.343
90, 8.77, 271.06, -274.49, 10.34, 0.000, 0.000, 0.000, 17:27:44.344
91, 13.33, 263.71, -115.50, 11.46, 0.000, 0.000, 0.000, 17:27:44.357
92, 28.77, 249.34, -213.79, 10.80, 0.000, 0.000, 0.000, 17:27:44.358
93, 26.34, 266.80, -305.20, 10.70, 0.000, 0.000, 0.000, 17:27:44.372
94, 21.29, 273.40, -154.44, 10.83, 0.000, 0.000, 0.000, 17:27:44.373
95, 29.11, 255.36, -154.51, 12.46, 0.000, 0.000, 0.000, 17:27:44.373
96, 16.49, 269.18, -304.03, 12.14, 0.000, 0.000, 0.000, 17:27:44.373
97, 23.18, 281.57, -211.73, 8.86, 0.000, 0.000, 0.000, 17:27:44.388
98, 35.49, 259.60, -116.07, 8.86, 0.000, 0.000, 0.000, 17:27:44.388
99, 33.70, 269.59, -264.43, 13.19, 0.000, 0.000, 0.000, 17:27:44.403
100, 31.50, 289.78, -263.84, 10.75, 0.000, 0.000, 0.000, 17:27:44.403
101, 20.33, 280.89, -102.33, 4.30, 0.000, 0.000, 0.000, 17:27:44.403
102, 38.63, 255.41, -212.09, 9.46, 0.000, 0.000, 0.000, 17:27:44.404
103, 48.67, 278.60, -298.86, 9.88, 0.000, 0.000, 0.000, 17:27:44.418
104, 33.45, 273.47, -146.44, 10.73, 0.000, 0.000, 0.000, 17:27:44.418
105, 39.95, 241.49, -160.61, 13.34, 0.000, 0.000, 0.000, 17:27:44.433
106, 57.87, 251.07, -308.39, 12.83, 0.000, 0.000, 0.000, 17:27:44.433
107, 29.58, 259.86, -216.37, 3.59, 0.000, 0.000, 0.000, 17:27:44.433
108, 45.03, 237.57, -124.65, 10.18, 0.000, 0.000, 0.000, 17:27:44.433
109, 47.47, 239.26, -280.32, 13.53, 0.000, 0.000, 0.000, 17:27:44.447
110, 45.60, 263.14, -275.60, 7.34, 0.000, 0.000, 0.000, 17:27:44.448
111, 30.06, 248.51, -126.00, 10.87, 0.000, 0.000, 0.000, 17:27:44.463
112, 34.61, 237.81, -221.75, 7.53, 0.000, 0.000, 0.000, 17:27:44.463
113, 16.47, 261.78, -312.16, 7.79, 0.000, 0.000, 0.000, 17:27:44.463
114, 13.66, 263.29, -165.46, 9.23, 0.000, 0.000, 0.000, 17:27:44.463
115, 8.08, 251.02, -164.36, 14.47, 0.000, 0.000, 0.000, 17:27:44.477
116, -13.68, 274.31, -309.78, 8.55, 0.000, 0.000, 0.000, 17:27:44.478
117, -35.23, 285.19, -213.51, 10.59, 0.000, 0.000, 0.000, 17:27:44.492
118, -36.51, 270.31, -127.64, 9.41, 0.000, 0.000, 0.000, 17:27:44.493
119, -32.49, 271.72, -280.54, 12.33, 0.000, 0.000, 0.000, 17:27:44.493
120, -49.97, 293.98, -283.51, 9.68, 0.000, 0.000, 0.000, 17:27:44.493
121, -55.34, 289.84, -123.12, 9.88, 0.000, 0.000, 0.000, 17:27:44.508
122, -46.34, 268.43, -218.17, 5.67, 0.000, 0.000, 0.000, 17:27:44.508
123, -45.76, 297.83, -316.24, 13.22, 0.000, 0.000, 0.000, 17:27:44.522
124, -38.94, 291.91, -162.75, 14.18, 0.000, 0.000, 0.000, 17:27:44.523
125, -34.86, 260.66, -161.99, 14.45, 0.000, 0.000, 0.000, 17:27:44.523
126, -11.08, 273.92, -322.47, 8.90, 0.000, 0.000, 0.000, 17:27:44.523
127, -17.68, 287.59, -225.74, 5.76, 0.000, 0.000, 0.000, 17:27:44.538
128, -14.08, 259.45, -133.43, 9.07, 0.000, 0.000, 0.000, 17:27:44.538
129, -8.31, 248.75, -285.68, 7.92, 0.000, 0.000, 0.000, 17:27:44.553
130, 0.94, 279.10, -278.19, 9.25, 0.000, 0.000, 0.000, 17:27:44.553
131, -11.14, 260.43, -126.68, 9.47, 0.000, 0.000, 0.000, 17:27:44.553
132, 9.15, 243.37, -230.68, 8.46, 0.000, 0.000, 0.000, 17:27:44.553
133, 19.35, 273.95, -313.84, 14.14, 0.000, 0.000, 0.000, 17:27:44.568
134, -0.90, 274.90, -158.87, 8.50, 0.000, 0.000, 0.000, 17:27:44.568
135, 4.30, 252.80, -158.51, 8.89, 0.000, 0.000, 0.000, 17:27:44.583
136, 18.86, 267.70, -309.86, 8.74, 0.000, 0.000, 0.000, 17:27:44.583
137, 8.91, 289.66, -215.92, 10.29, 0.000, 0.000, 0.000, 17:27:44.583
138, 11.97, 273.48, -114.59, 5.72, 0.000, 0.000, 0.000, 17:27:44.584
139, 14.57, 264.85, -260.43, 9.34, 0.000, 0.000, 0.000, 17:27:44.598
140, 9.00, 287.81, -269.47, 12.32, 0.000, 0.000, 0.000, 17:27:44.598
141, 2.31, 274.59, -118.00, 13.89, 0.000, 0.000, 0.000, 17:27:44.612
142, 21.27, 258.30, -210.86, 12.64, 0.000, 0.000, 0.000, 17:27:44.613
143, 20.71, 277.97, -311.96, 12.04, 0.000, 0.000, 0.000, 17:27:44.613
144, 7.78, 281.30, -148.84, 4.20, 0.000, 0.000, 0.000, 17:27:44.613
145, 18.23, 252.88, -153.58, 11.46, 0.000, 0.000, 0.000, 17:27:44.628
146, 7.79, 267.42, -315.50, 8.05, 0.000, 0.000, 0.000, 17:27:44.628
147, 22.20, 283.88, -221.21, 11.65, 0.000, 0.000, 0.000, 17:27:44.643
148, 12.95, 254.60, -121.16, 8.83, 0.000, 0.000, 0.000, 17:27:44.643
149, 12.52, 252.20, -272.11, 11.48, 0.000, 0.000, 0.000, 17:27:44.659
150, 1.63, 275.11, -279.47, 9.02, 0.000, 0.000, 0.000, 17:27:44.659
151, 7.47, 263.55, -129.44, 5.64, 0.000, 0.000, 0.000, 17:27:44.659
152, 9.16, 255.57, -222.40, 9.13, 0.000, 0.000, 0.000, 17:27:44.659
153, 13.23, 269.42, -309.48, 17.08, 0.000, 0.000, 0.000, 17:27:44.673
154, 7.84, 270.35, -167.56, 8.02, 0.000, 0.000, 0.000, 17:27:44.673
155, 15.49, 253.48, -153.27, 7.34, 0.000, 0.000, 0.000, 17:27:44.673
156, 11.38, 262.33, -319.63, 9.43, 0.000, 0.000, 0.000, 17:27:44.673
157, 1.31, 294.13, -209.74, 13.44, 0.000, 0.000, 0.000, 17:27:44.687
158, 12.74, 277.16, -112.04, 7.28, 0.000, 0.000, 0.000, 17:27:44.688
159, 22.16, 262.63, -275.76, 9.93, 0.000, 0.000, 0.000, 17:27:44.703
160, 16.61, 289.18, -269.37, 12.91, 0.000, 0.000, 0.000, 17:27:44.703
161, 4.68, 278.73, -119.85, 10.77, 0.000, 0.000, 0.000, 17:27:44.703
162, 21.89, 256.24, -202.94, 9.28, 0.000, 0.000, 0.000, 17:27:44.704
163, 10.06, 277.60, -311.26, 7.63, 0.000, 0.000, 0.000, 17:27:44.717
164, 7.23, 299.24, -152.23, 10.04, 0.000, 0.000, 0.000, 17:27:44.718
165, 8.14, 257.90, -157.85, 9.47, 0.000, 0.000, 0.000, 17:27:44.732
166, 22.47, 275.29, -307.75, 9.78, 0.000, 0.000, 0.000, 17:27:44.733
167, 15.05, 292.97, -216.10, 12.27, 0.000, 0.000, 0.000, 17:27:44.733
168, 12.21, 272.58, -121.83, 12.03, 0.000, 0.000, 0.000, 17:27:44.733
169, 6.24, 264.17, -274.58, 7.05, 0.000, 0.000, 0.000, 17:27:44.747
170, 7.53, 286.99, -278.23, 6.73, 0.000, 0.000, 0.000, 17:27:44.748
171, 2.95, 268.31, -140.65, 12.46, 0.000, 0.000, 0.000, 17:27:44.762
172, 15.73, 274.71, -208.69, 6.60, 0.000, 0.000, 0.000, 17:27:44.763
173, 16.37, 283.25, -310.52, 4.88, 0.000, 0.000, 0.000, 17:27:44.763
174, 6.21, 298.12, -150.91, 9.61, 0.000, 0.000, 0.000, 17:27:44.763
175, 10.56, 264.28, -158.26, 17.82, 0.000, 0.000, 0.000, 17:27:44.777
176, 18.89, 282.55, -304.82, 12.75, 0.000, 0.000, 0.000, 17:27:44.777
177, 8.79, 298.60, -224.06, 12.55, 0.000, 0.000, 0.000, 17:27:44.793
178, 8.95, 276.62, -119.89, 10.97, 0.000, 0.000, 0.000, 17:27:44.793
179, 8.42, 273.14, -271.13, 10.84, 0.000, 0.000, 0.000, 17:27:44.793
180, 5.67, 300.50, -277.69, 6.75, 0.000, 0.000, 0.000, 17:27:44.793
181, 6.93, 292.71, -116.68, 9.51, 0.000, 0.000, 0.000, 17:27:44.808
182, 25.06, 267.81, -205.24, 9.96, 0.000, 0.000, 0.000, 17:27:44.808
183, 2.88, 293.83, -299.19, 8.83, 0.000, 0.000, 0.000, 17:27:44.823
184, 15.72, 284.93, -158.46, 9.66, 0.000, 0.000, 0.000, 17:27:44.823
185, 16.87, 254.89, -153.32, 12.16, 0.000, 0.000, 0.000, 17:27:44.823
186, 17.93, 262.47, -303.82, 10.41, 0.000, 0.000, 0.000, 17:27:44.824
187, 7.01, 278.33, -227.96, 9.83, 0.000, 0.000, 0.000, 17:27:44.837
188, 6.71, 254.38, -124.14, 11.38, 0.000, 0.000, 0.000, 17:27:44.838
189, 18.88, 253.04, -267.98, 13.81, 0.000, 0.000, 0.000, 17:27:44.853
190, 18.85, 270.54, -283.30, 13.33, 0.000, 0.000, 0.000, 17:27:44.853
191, 18.06, 260.38, -138.37, 9.60, 0.000, 0.000, 0.000, 17:27:44.853
192, 18.36, 241.39, -221.06, 4.06, 0.000, 0.000, 0.000, 17:27:44.853
193, 16.15, 254.64, -324.30, 9.59, 0.000, 0.000, 0.000, 17:27:44.867
194, -10.27, 279.69, -149.32, 10.35, 0.000, 0.000, 0.000, 17:27:44.868
195, 17.71, 251.25, -150.37, 11.71, 0.000, 0.000, 0.000, 17:27:44.883
196, -0.66, 263.59, -313.09, 6.25, 0.000, 0.000, 0.000, 17:27:44.883
197, 7.56, 285.18, -224.85, 9.00, 0.000, 0.000, 0.000, 17:27:44.883
198, 2.65, 273.19, -118.60, 10.28, 0.000, 0.000, 0.000, 17:27:44.884
199, 8.21, 262.57, -263.03, 9.00, 0.000, 0.000, 0.000, 17:27:44.898
200, 1.55, 298.44, -266.46, 9.30, 0.000, 0.000, 0.000, 17:27:44.898
0, 5.95, 287.95, -113.99, 13.95, 0.000, 0.000, 0.000, 17:27:44.898
1, 4.67, 261.77, -195.68, 10.82, 0.000, 0.000, 0.000, 17:27:44.913
2, 22.02, 285.67, -299.53, 9.78, 0.000, 0.000, 0.000, 17:27:44.913
3, 9.09, 275.32, -164.17, 11.89, 0.000, 0.000, 0.000, 17:27:44.928
4, 10.56, 246.20, -155.53, 12.71, 0.000, 0.000, 0.000, 17:27:44.928
5, 18.00, 257.45, -306.74, 10.26, 0.000, 0.000, 0.000, 17:27:44.929
6, 2.01, 273.90, -215.26, 6.19, 0.000, 0.000, 0.000, 17:27:44.929
7, -6.27, 241.66, -109.40, 8.66, 0.000, 0.000, 0.000, 17:27:44.942
8, -3.98, 232.68, -252.14, 10.21, 0.000, 0.000, 0.000, 17:27:44.942
9, 55.46, 255.95, -267.23, 9.75, 0.000, 0.000, 0.000, 17:27:44.958
10, 165.45, 241.73, -101.83, 14.98, 0.000, 0.000, 0.000, 17:27:44.958
11, 231.42, 228.23, -169.06, 9.34, 0.000, 0.000, 0.000, 17:27:44.958
12, 249.39, 245.83, -271.12, 6.52, 0.000, 0.000, 0.000, 17:27:44.958
13, 183.92, 254.09, -134.81, 12.47, 0.000, 0.000, 0.000, 17:27:44.972
14, 1.64, 235.92, -162.53, 8.51, 0.000, 0.000, 0.000, 17:27:44.973
15, -159.89, 263.44, -345.43, 12.73, 0.000, 0.000, 0.000, 17:27:44.988
16, -249.41, 288.34, -282.83, 9.82, 0.000, 0.000, 0.000, 17:27:44.988
17, -95.20, 280.54, -150.19, 10.04, 0.000, 0.000, 0.000, 17:27:44.988
18, -8.00, 272.14, -283.52, 9.94, 0.000, 0.000, 0.000, 17:27:44.989
19, -20.25, 303.27, -265.92, 6.92, 0.000, 0.000, 0.000, 17:27:45.003
20, -29.67, 295.35, -100.58, 11.03, 0.000, 0.000, 0.000, 17:27:45.004
21, -17.89, 265.26, -192.93, 9.69, 0.000, 0.000, 0.000, 17:27:45.018
22, -22.22, 278.57, -308.55, 5.42, 0.000, 0.000, 0.000, 17:27:45.018
23, -19.26, 278.73, -151.97, 9.90, 0.000, 0.000, 0.000, 17:27:45.019
24, 2.08, 246.09, -159.16, 14.59, 0.000, 0.000, 0.000, 17:27:45.019
25, 17.54, 260.12, -313.25, 9.90, 0.000, 0.000, 0.000, 17:27:45.032
26, -2.56, 267.03, -220.87, 3.56, 0.000, 0.000, 0.000, 17:27:45.032
27, 9.58, 247.23, -120.86, 11.95, 0.000, 0.000, 0.000, 17:27:45.047
28, 7.45, 235.34, -276.36, 11.60, 0.000, 0.000, 0.000, 17:27:45.047
29, 18.78, 263.47, -285.06, 12.59, 0.000, 0.000, 0.000, 17:27:45.048
30, 13.13, 259.45, -128.83, 7.98, 0.000, 0.000, 0.000, 17:27:45.048
31, 17.54, 253.75, -210.79, 10.89, 0.000, 0.000, 0.000, 17:27:45.062
32, 19.59, 269.76, -323.73, 14.95, 0.000, 0.000, 0.000, 17:27:45.062
33, 20.75, 284.17, -160.33, 12.58, 0.000, 0.000, 0.000, 17:27:45.078
34, 25.94, 265.09, -142.37, 3.83, 0.000, 0.000, 0.000, 17:27:45.078
35, 23.86, 278.17, -297.87, 4.33, 0.000, 0.000, 0.000, 17:27:45.078
36, 13.23, 298.03, -215.44, 7.49, 0.000, 0.000, 0.000, 17:27:45.078
37, 20.88, 271.55, -120.70, 11.59, 0.000, 0.000, 0.000, 17:27:45.092
38, 25.87, 271.53, -263.28, 8.61, 0.000, 0.000, 0.000, 17:27:45.093
39, 34.29, 291.69, -276.42, 4.70, 0.000, 0.000, 0.000, 17:27:45.107
40, 16.82, 281.68, -109.22, 7.65, 0.000, 0.000, 0.000, 17:27:45.108
41, 39.11, 262.26, -200.71, 14.21, 0.000, 0.000, 0.000, 17:27:45.108
42, 25.19, 275.07, -305.41, 9.95, 0.000, 0.000, 0.000, 17:27:45.108
43, 17.28, 276.37, -156.91, 11.05, 0.000, 0.000, 0.000, 17:27:45.124
44, 41.02, 243.12, -150.55, 10.95, 0.000, 0.000, 0.000, 17:27:45.124
45, 44.54, 254.60, -315.29, 10.86, 0.000, 0.000, 0.000, 17:27:45.138
46, 41.25, 264.88, -220.80, 12.18, 0.000, 0.000, 0.000, 17:27:45.138
47, 33.15, 238.18, -130.55, 10.22, 0.000, 0.000, 0.000, 17:27:45.138
48, 41.47, 237.67, -268.02, 12.40, 0.000, 0.000, 0.000, 17:27:45.138
49, 43.95, 264.39, -284.14, 12.03, 0.000, 0.000, 0.000, 17:27:45.188
50, 46.09, 255.25, -127.63, 12.43, 0.000, 0.000, 0.000, 17:27:45.189
51, 56.61, 237.37, -213.56, 7.49, 0.000, 0.000, 0.000, 17:27:45.189
52, 42.61, 266.05, -307.03, 11.52, 0.000, 0.000, 0.000, 17:27:45.190
53, 38.62, 272.61, -160.83, 9.18, 0.000, 0.000, 0.000, 17:27:45.190
54, 38.21, 258.74, -145.66, 6.63, 0.000, 0.000, 0.000, 17:27:45.190
55, 37.26, 263.45, -302.93, 9.91, 0.000, 0.000, 0.000, 17:27:45.190
56, 22.70, 291.89, -216.47, 7.73, 0.000, 0.000, 0.000, 17:27:45.190
57, 3.32, 272.60, -113.57, 11.18, 0.000, 0.000, 0.000, 17:27:45.197
58, 6.63, 266.07, -265.21, 10.58, 0.000, 0.000, 0.000, 17:27:45.198
59, -18.75, 290.52, -278.73, 10.39, 0.000, 0.000, 0.000, 17:27:45.198
60, -25.46, 283.26, -126.44, 12.35, 0.000, 0.000, 0.000, 17:27:45.198
61, -29.32, 259.74, -219.13, 11.16, 0.000, 0.000, 0.000, 17:27:45.212
62, -36.11, 292.10, -314.25, 3.62, 0.000, 0.000, 0.000, 17:27:45.212
63, -60.48, 286.15, -171.47, 14.33, 0.000, 0.000, 0.000, 17:27:45.227
64, -40.75, 260.20, -166.79, 6.75, 0.000, 0.000, 0.000, 17:27:45.228
65, -51.30, 259.92, -320.08, 9.91, 0.000, 0.000, 0.000, 17:27:45.228
66, -53.56, 273.08, -245.03, 8.24, 0.000, 0.000, 0.000, 17:27:45.228
67, -49.25, 246.17, -144.36, 10.95, 0.000, 0.000, 0.000, 17:27:45.242
68, -9.41, 249.55, -278.21, 8.25, 0.000, 0.000, 0.000, 17:27:45.243
69, -22.34, 268.50, -303.43, 15.58, 0.000, 0.000, 0.000, 17:27:45.258
70, -29.37, 260.58, -144.83, 11.41, 0.000, 0.000, 0.000, 17:27:45.258
71, -5.17, 248.19, -217.77, 10.21, 0.000, 0.000, 0.000, 17:27:45.258
72, 3.87, 264.03, -324.29, 12.04, 0.000, 0.000, 0.000, 17:27:45.259
73, -17.66, 275.03, -165.31, 10.53, 0.000, 0.000, 0.000, 17:27:45.272
74, 0.06, 250.35, -150.96, 11.36, 0.000, 0.000, 0.000, 17:27:45.273
75, 13.61, 260.01, -314.07, 10.09, 0.000, 0.000, 0.000, 17:27:45.288
76, -5.16, 286.61, -228.42, 9.48, 0.000, 0.000, 0.000, 17:27:45.288
77, 8.09, 267.94, -120.34, 9.33, 0.000, 0.000, 0.000, 17:27:45.288
78, 18.58, 264.14, -257.07, 6.32, 0.000, 0.000, 0.000, 17:27:45.288
79, 9.95, 290.69, -280.26, 9.20, 0.000, 0.000, 0.000, 17:27:45.302
80, 17.71, 283.37, -127.23, 11.65, 0.000, 0.000, 0.000, 17:27:45.302
81, 9.61, 264.88, -194.98, 9.35, 0.000, 0.000, 0.000, 17:27:45.318
82, 16.31, 284.22, -307.87, 10.56, 0.000, 0.000, 0.000, 17:27:45.318
83, 10.99, 296.93, -161.60, 7.94, 0.000, 0.000, 0.000, 17:27:45.318
84, -3.33, 258.23, -148.52, 9.97, 0.000, 0.000, 0.000, 17:27:45.319
85, 21.96, 277.81, -298.67, 12.04, 0.000, 0.000, 0.000, 17:27:45.332
86, 13.17, 292.04, -222.58, 1.66, 0.000, 0.000, 0.000, 17:27:45.333
87, 10.26, 256.75, -129.15, 10.51, 0.000, 0.000, 0.000, 17:27:45.348
88, 21.89, 259.13, -265.88, 10.34, 0.000, 0.000, 0.000, 17:27:45.348
89, 7.68, 279.81, -278.44, 11.34, 0.000, 0.000, 0.000, 17:27:45.348
90, 7.71, 262.39, -133.25, 12.60, 0.000, 0.000, 0.000, 17:27:45.349
91, 18.49, 249.14, -210.69, 8.15, 0.000, 0.000, 0.000, 17:27:45.363
92, 23.35, 266.55, -314.68, 11.34, 0.000, 0.000, 0.000, 17:27:45.363
93, 3.63, 270.52, -173.83, 11.38, 0.000, 0.000, 0.000, 17:27:45.378
94, 13.71, 251.23, -147.42, 9.38, 0.000, 0.000, 0.000, 17:27:45.378
95, 25.58, 263.20, -301.87, 11.59, 0.000, 0.000, 0.000, 17:27:45.378
96, -8.53, 291.20, -217.94, 9.17, 0.000, 0.000, 0.000, 17:27:45.378
97, 11.66, 264.37, -122.30, 13.18, 0.000, 0.000, 0.000, 17:27:45.393
98, 24.54, 263.78, -255.52, 10.35, 0.000, 0.000, 0.000, 17:27:45.393
99, 9.33, 285.50, -277.69, 8.56, 0.000, 0.000, 0.000, 17:27:45.408
100, 4.01, 280.54, -120.83, 10.70, 0.000, 0.000, 0.000, 17:27:45.408
101, 19.69, 264.59, -192.56, 10.32, 0.000, 0.000, 0.000, 17:27:45.408
102, 21.81, 281.23, -309.75, 8.17, 0.000, 0.000, 0.000, 17:27:45.409
103, 0.23, 285.71, -167.62, 5.39, 0.000, 0.000, 0.000, 17:27:45.422
104, 19.83, 259.42, -139.69, 9.10, 0.000, 0.000, 0.000, 17:27:45.423
105, 9.47, 270.14, -302.49, 11.17, 0.000, 0.000, 0.000, 17:27:45.438
106, -2.30, 275.84, -229.88, 11.35, 0.000, 0.000, 0.000, 17:27:45.438
107, 13.62, 249.24, -127.91, 13.20, 0.000, 0.000, 0.000, 17:27:45.438
108, 13.41, 246.96, -262.78, 15.91, 0.000, 0.000, 0.000, 17:27:45.438
109, 8.53, 274.91, -281.72, 9.41, 0.000, 0.000, 0.000, 17:27:45.452
110, 8.76, 257.76, -139.41, 6.79, 0.000, 0.000, 0.000, 17:27:45.453
111, 20.37, 244.62, -203.87, 11.80, 0.000, 0.000, 0.000, 17:27:45.468
112, 5.14, 258.00, -319.14, 12.95, 0.000, 0.000, 0.000, 17:27:45.468
113, 8.42, 270.71, -171.89, 9.98, 0.000, 0.000, 0.000, 17:27:45.468
114, 11.81, 255.41, -143.82, 7.45, 0.000, 0.000, 0.000, 17:27:45.468
115, 22.47, 268.57, -308.99, 6.23, 0.000, 0.000, 0.000, 17:27:45.483
116, 9.76, 288.63, -226.50, 5.30, 0.000, 0.000, 0.000, 17:27:45.483
117, 6.57, 272.50, -115.99, 14.29, 0.000, 0.000, 0.000, 17:27:45.497
118, 15.29, 271.99, -255.34, 11.58, 0.000, 0.000, 0.000, 17:27:45.498
119, 16.81, 290.23, -271.82, 5.13, 0.000, 0.000, 0.000, 17:27:45.498
120, -3.18, 283.98, -110.27, 17.05, 0.000, 0.000, 0.000, 17:27:45.498
121, 19.12, 254.60, -194.86, 10.93, 0.000, 0.000, 0.000, 17:27:45.512
122, 20.40, 276.27, -308.20, 10.59, 0.000, 0.000, 0.000, 17:27:45.512
123, 2.05, 277.44, -168.10, 8.77, 0.000, 0.000, 0.000, 17:27:45.528
124, 16.79, 248.74, -154.50, 10.59, 0.000, 0.000, 0.000, 17:27:45.528
125, 3.58, 258.61, -307.03, 6.46, 0.000, 0.000, 0.000, 17:27:45.528
126, 12.70, 272.75, -228.63, 10.82, 0.000, 0.000, 0.000, 17:27:45.529
127, 25.36, 245.73, -129.65, 12.78, 0.000, 0.000, 0.000, 17:27:45.542
128, 34.57, 242.82, -273.60, 8.77, 0.000, 0.000, 0.000, 17:27:45.543
129, 6.07, 260.67, -290.56, 8.60, 0.000, 0.000, 0.000, 17:27:45.558
130, 7.43, 262.81, -130.70, 7.79, 0.000, 0.000, 0.000, 17:27:45.558
131, 23.79, 238.06, -203.39, 11.07, 0.000, 0.000, 0.000, 17:27:45.558
132, 5.68, 264.57, -319.69, 11.74, 0.000, 0.000, 0.000, 17:27:45.558
133, -4.60, 272.40, -170.98, 8.84, 0.000, 0.000, 0.000, 17:27:45.572
134, -0.68, 250.60, -147.01, 10.43, 0.000, 0.000, 0.000, 17:27:45.573
135, 3.48, 255.51, -307.90, 11.10, 0.000, 0.000, 0.000, 17:27:45.588
136, -15.12, 279.67, -231.37, 7.36, 0.000, 0.000, 0.000, 17:27:45.588
137, 12.16, 258.08, -122.86, 9.57, 0.000, 0.000, 0.000, 17:27:45.588
138, 14.94, 263.64, -260.14, 8.89, 0.000, 0.000, 0.000, 17:27:45.589
139, 14.55, 278.72, -287.71, 11.44, 0.000, 0.000, 0.000, 17:27:45.602
140, 4.01, 278.46, -137.34, 5.60, 0.000, 0.000, 0.000, 17:27:45.603
141, 12.89, 256.08, -198.20, 13.61, 0.000, 0.000, 0.000, 17:27:45.617
142, 12.71, 276.29, -311.20, 11.90, 0.000, 0.000, 0.000, 17:27:45.617
143, -4.81, 278.72, -171.66, 10.58, 0.000, 0.000, 0.000, 17:27:45.618
144, 19.46, 258.84, -143.90, 11.26, 0.000, 0.000, 0.000, 17:27:45.618
145, 4.65, 270.45, -289.14, 17.12, 0.000, 0.000, 0.000, 17:27:45.632
146, 7.33, 276.87, -224.13, 12.81, 0.000, 0.000, 0.000, 17:27:45.633
147, 92.45, 248.56, -112.38, 14.85, 0.000, 0.000, 0.000, 17:27:45.648
148, 181.54, 234.01, -230.96, 15.29, 0.000, 0.000, 0.000, 17:27:45.648
149, 225.01, 253.32, -245.45, 13.39, 0.000, 0.000, 0.000, 17:27:45.649
150, 246.16, 246.38, -85.11, 9.34, 0.000, 0.000, 0.000, 17:27:45.649
151, 161.89, 225.02, -188.95, 13.56, 0.000, 0.000, 0.000, 17:27:45.662
152, -74.22, 255.39, -339.08, 11.98, 0.000, 0.000, 0.000, 17:27:45.663
153, -223.85, 277.58, -218.54, 14.96, 0.000, 0.000, 0.000, 17:27:45.677
154, -197.28, 262.85, -201.63, 8.84, 0.000, 0.000, 0.000, 17:27:45.678
155, -60.63, 278.56, -336.72, 12.62, 0.000, 0.000, 0.000, 17:27:45.678
156, -20.50, 300.47, -237.52, 12.06, 0.000, 0.000, 0.000, 17:27:45.678
157, -23.39, 269.04, -113.09, 9.12, 0.000, 0.000, 0.000, 17:27:45.693
158, -19.74, 262.65, -251.04, 9.54, 0.000, 0.000, 0.000, 17:27:45.693
159, -20.08, 287.74, -268.62, 8.46, 0.000, 0.000, 0.000, 17:27:45.707
160, -4.29, 276.16, -125.58, 8.19, 0.000, 0.000, 0.000, 17:27:45.708
161, -10.44, 258.24, -191.52, 11.85, 0.000, 0.000, 0.000, 17:27:45.708
162, 2.31, 280.96, -303.23, 11.49, 0.000, 0.000, 0.000, 17:27:45.708
163, 10.06, 291.74, -175.62, 10.92, 0.000, 0.000, 0.000, 17:27:45.723
164, 3.48, 260.17, -144.11, 11.08, 0.000, 0.000, 0.000, 17:27:45.731
165, 11.03, 272.24, -290.21, 11.48, 0.000, 0.000, 0.000, 17:27:45.738
166, 3.77, 288.95, -231.73, 11.36, 0.000, 0.000, 0.000, 17:27:45.738
167, 11.16, 264.15, -113.04, 7.96, 0.000, 0.000, 0.000, 17:27:45.738
168, 27.93, 256.01, -254.67, 7.98, 0.000, 0.000, 0.000, 17:27:45.738
169, 13.04, 275.96, -279.30, 11.13, 0.000, 0.000, 0.000, 17:27:45.752
170, 13.73, 268.85, -125.02, 11.55, 0.000, 0.000, 0.000, 17:27:45.753
171, 24.18, 237.56, -201.81, 11.42, 0.000, 0.000, 0.000, 17:27:45.768
172, 24.90, 262.68, -309.73, 9.47, 0.000, 0.000, 0.000, 17:27:45.768
173, 16.22, 275.79, -164.61, 9.94, 0.000, 0.000, 0.000, 17:27:45.769
174, 16.32, 249.92, -145.61, 7.29, 0.000, 0.000, 0.000, 17:27:45.769
175, 34.89, 259.01, -300.01, 9.38, 0.000, 0.000, 0.000, 17:27:45.782
176, 10.33, 283.31, -230.43, 9.19, 0.000, 0.000, 0.000, 17:27:45.783
177, 30.07, 257.50, -126.55, 14.74, 0.000, 0.000, 0.000, 17:27:45.798
178, 34.41, 254.44, -256.36, 9.24, 0.000, 0.000, 0.000, 17:27:45.798
179, 29.13, 275.49, -278.01, 9.72, 0.000, 0.000, 0.000, 17:27:45.798
180, 16.52, 268.43, -136.54, 9.69, 0.000, 0.000, 0.000, 17:27:45.799
181, 47.63, 248.37, -194.34, 14.33, 0.000, 0.000, 0.000, 17:27:45.813
182, 26.93, 267.05, -301.37, 9.73, 0.000, 0.000, 0.000, 17:27:45.813
183, 35.01, 276.68, -167.34, 8.93, 0.000, 0.000, 0.000, 17:27:45.828
184, 52.22, 256.99, -134.72, 8.29, 0.000, 0.000, 0.000, 17:27:45.828
185, 41.53, 262.05, -292.29, 11.48, 0.000, 0.000, 0.000, 17:27:45.828
186, 43.25, 283.58, -223.03, 10.88, 0.000, 0.000, 0.000, 17:27:45.828
187, 40.26, 254.10, -113.98, 8.78, 0.000, 0.000, 0.000, 17:27:45.843
188, 48.80, 252.44, -252.25, 11.69, 0.000, 0.000, 0.000, 17:27:45.843
189, 38.85, 271.48, -282.60, 7.96, 0.000, 0.000, 0.000, 17:27:45.858
190, 44.45, 260.49, -131.04, 7.73, 0.000, 0.000, 0.000, 17:27:45.858
191, 46.40, 242.84, -190.82, 9.99, 0.000, 0.000, 0.000, 17:27:45.858
192, 50.28, 261.03, -308.00, 11.78, 0.000, 0.000, 0.000, 17:27:45.859
193, 7.64, 262.04, -183.42, 13.55, 0.000, 0.000, 0.000, 17:27:45.873
194, 16.19, 240.16, -138.93, 7.39, 0.000, 0.000, 0.000, 17:27:45.873
195, 34.33, 249.48, -308.20, 12.11, 0.000, 0.000, 0.000, 17:27:45.903
196, -2.49, 268.68, -247.78, 10.75, 0.000, 0.000, 0.000, 17:27:45.903
197, -23.75, 255.28, -126.76, 9.31, 0.000, 0.000, 0.000, 17:27:45.903
198, -28.66, 255.58, -262.86, 10.11, 0.000, 0.000, 0.000, 17:27:45.904
199, -46.44, 285.35, -294.32, 9.59, 0.000, 0.000, 0.000, 17:27:45.904
200, -54.60, 283.24, -144.27, 8.73, 0.000, 0.000, 0.000, 17:27:45.904
0, -44.54, 271.18, -196.24, 10.77, 0.000, 0.000, 0.000, 17:27:45.917
1, -37.24, 294.16, -320.71, 11.01, 0.000, 0.000, 0.000, 17:27:45.932
2, -68.86, 295.05, -183.09, 11.67, 0.000, 0.000, 0.000, 17:27:45.932
3, -43.44, 266.11, -150.17, 6.92, 0.000, 0.000, 0.000, 17:27:45.933
4, -22.85, 264.11, -304.16, 8.30, 0.000, 0.000, 0.000, 17:27:45.933
5, -26.99, 290.07, -241.38, 10.69, 0.000, 0.000, 0.000, 17:27:45.933
6, -38.29, 275.43, -124.57, 11.92, 0.000, 0.000, 0.000, 17:27:45.933
7, -3.59, 261.51, -263.17, 14.13, 0.000, 0.000, 0.000, 17:27:45.947
8, -12.64, 279.73, -293.47, 10.85, 0.000, 0.000, 0.000, 17:27:45.948
9, -4.45, 273.98, -135.47, 5.79, 0.000, 0.000, 0.000, 17:27:45.962
10, 7.68, 252.72, -206.75, 11.09, 0.000, 0.000, 0.000, 17:27:45.962
11, 8.50, 269.61, -316.69, 10.91, 0.000, 0.000, 0.000, 17:27:45.963
12, -2.24, 269.73, -178.35, 10.99, 0.000, 0.000, 0.000, 17:27:45.963
13, -0.90, 254.27, -142.64, 12.03, 0.000, 0.000, 0.000, 17:27:45.977
14, 9.94, 254.73, -304.47, 7.22, 0.000, 0.000, 0.000, 17:27:45.977
15, 12.11, 274.59, -240.23, 12.42, 0.000, 0.000, 0.000, 17:27:45.993
16, 16.87, 259.40, -122.48, 11.39, 0.000, 0.000, 0.000, 17:27:45.993
17, 17.02, 251.33, -258.67, 9.18, 0.000, 0.000, 0.000, 17:27:45.993
18, 14.31, 283.67, -285.07, 12.03, 0.000, 0.000, 0.000, 17:27:45.994
19, -1.43, 281.26, -119.99, 11.49, 0.000, 0.000, 0.000, 17:27:46.008
20, 15.88, 262.20, -189.51, 11.58, 0.000, 0.000, 0.000, 17:27:46.008
21, 12.54, 283.28, -304.53, 13.65, 0.000, 0.000, 0.000, 17:27:46.023
22, 5.19, 291.64, -173.86, 4.72, 0.000, 0.000, 0.000, 17:27:46.023
23, 19.81, 271.54, -130.40, 7.91, 0.000, 0.000, 0.000, 17:27:46.023
24, 18.62, 279.21, -295.75, 10.72, 0.000, 0.000, 0.000, 17:27:46.023
25, 8.44, 286.01, -241.39, 12.12, 0.000, 0.000, 0.000, 17:27:46.038
26, 6.43, 274.41, -105.68, 7.97, 0.000, 0.000, 0.000, 17:27:46.038
27, 24.22, 256.04, -259.62, 10.20, 0.000, 0.000, 0.000, 17:27:46.053
28, 20.40, 275.01, -302.23, 13.74, 0.000, 0.000, 0.000, 17:27:46.053
29, 5.80, 264.82, -137.94, 7.12, 0.000, 0.000, 0.000, 17:27:46.053
30, 10.36, 251.54, -197.18, 11.43, 0.000, 0.000, 0.000, 17:27:46.053
31, 11.18, 268.14, -309.63, 8.22, 0.000, 0.000, 0.000, 17:27:46.068
32, 16.09, 273.05, -182.19, 2.77, 0.000, 0.000, 0.000, 17:27:46.068
33, -0.50, 250.21, -147.56, 8.21, 0.000, 0.000, 0.000, 17:27:46.083
34, 5.32, 248.32, -307.07, 8.32, 0.000, 0.000, 0.000, 17:27:46.083
35, 16.92, 268.58, -249.26, 5.03, 0.000, 0.000, 0.000, 17:27:46.083
36, 11.78, 253.79, -125.48, 2.57, 0.000, 0.000, 0.000, 17:27:46.083
37, 1.39, 249.77, -248.86, 10.47, 0.000, 0.000, 0.000, 17:27:46.097
38, 18.29, 274.61, -290.32, 4.72, 0.000, 0.000, 0.000, 17:27:46.098
39, 11.05, 274.29, -139.70, 9.90, 0.000, 0.000, 0.000, 17:27:46.112
40, 8.81, 253.31, -192.20, 7.11, 0.000, 0.000, 0.000, 17:27:46.113
41, 16.86, 273.56, -316.36, 7.57, 0.000, 0.000, 0.000, 17:27:46.113
42, -0.60, 290.20, -177.77, 10.02, 0.000, 0.000, 0.000, 17:27:46.114
43, 8.62, 281.97, -133.78, 7.97, 0.000, 0.000, 0.000, 17:27:46.127
44, 27.44, 295.13, -279.99, 4.63, 0.000, 0.000, 0.000, 17:27:46.128
45, 6.13, 313.85, -223.86, 5.13, 0.000, 0.000, 0.000, 17:27:46.143
46, 4.46, 291.06, -108.84, 7.95, 0.000, 0.000, 0.000, 17:27:46.143
47, 20.15, 291.10, -241.07, 9.96, 0.000, 0.000, 0.000, 17:27:46.144
48, 13.34, 313.49, -279.20, 8.07, 0.000, 0.000, 0.000, 17:27:46.144
49, 10.59, 298.99, -127.12, 12.87, 0.000, 0.000, 0.000, 17:27:46.157
50, 15.84, 270.58, -190.03, 9.95, 0.000, 0.000, 0.000, 17:27:46.158
51, 10.06, 292.47, -302.95, 15.03, 0.000, 0.000, 0.000, 17:27:46.172
52, 13.52, 291.76, -179.11, 10.13, 0.000, 0.000, 0.000, 17:27:46.173
53, -2.47, 269.53, -131.43, 9.36, 0.000, 0.000, 0.000, 17:27:46.173
54, 13.97, 275.69, -293.82, 10.00, 0.000, 0.000, 0.000, 17:27:46.173
55, 1.77, 294.16, -238.62, 15.00, 0.000, 0.000, 0.000, 17:27:46.188
56, 10.56, 277.78, -110.65, 6.93, 0.000, 0.000, 0.000, 17:27:46.188
57, 26.20, 268.82, -252.54, 9.12, 0.000, 0.000, 0.000, 17:27:46.203
58, 4.96, 297.11, -283.70, 10.16, 0.000, 0.000, 0.000, 17:27:46.203
59, 13.81, 291.61, -128.75, 8.12, 0.000, 0.000, 0.000, 17:27:46.203
60, 17.09, 274.58, -179.54, 9.19, 0.000, 0.000, 0.000, 17:27:46.203
61, 11.79, 290.78, -293.90, 9.40, 0.000, 0.000, 0.000, 17:27:46.218
62, 4.96, 307.41, -156.44, 8.76, 0.000, 0.000, 0.000, 17:27:46.218
63, 7.23, 285.38, -120.19, 8.53, 0.000, 0.000, 0.000, 17:27:46.232
64, 5.81, 277.84, -289.85, 7.90, 0.000, 0.000, 0.000, 17:27:46.233
65, 15.40, 299.01, -223.95, 11.52, 0.000, 0.000, 0.000, 17:27:46.233
66, 13.85, 287.21, -104.00, 8.66, 0.000, 0.000, 0.000, 17:27:46.233
67, 22.51, 280.19, -226.57, 10.12, 0.000, 0.000, 0.000, 17:27:46.247
68, 8.36, 297.24, -279.02, 10.71, 0.000, 0.000, 0.000, 17:27:46.248
69, 21.58, 288.07, -129.89, 13.42, 0.000, 0.000, 0.000, 17:27:46.263
70, 19.25, 264.08, -180.86, 13.80, 0.000, 0.000, 0.000, 17:27:46.263
71, 26.08, 282.85, -299.72, 6.98, 0.000, 0.000, 0.000, 17:27:46.263
72, 15.39, 280.79, -180.86, 9.04, 0.000, 0.000, 0.000, 17:27:46.263
73, 10.61, 255.10, -135.53, 11.58, 0.000, 0.000, 0.000, 17:27:46.277
74, 5.61, 261.52, -289.56, 11.80, 0.000, 0.000, 0.000, 17:27:46.278
75, -13.54, 271.08, -237.08, 6.99, 0.000, 0.000, 0.000, 17:27:46.293
76, 6.44, 251.21, -117.85, 7.95, 0.000, 0.000, 0.000, 17:27:46.293
77, -1.12, 249.72, -242.14, 9.29, 0.000, 0.000, 0.000, 17:27:46.294
78, 2.05, 277.13, -288.40, 9.29, 0.000, 0.000, 0.000, 17:27:46.294
79, 7.21, 275.89, -131.68, 9.82, 0.000, 0.000, 0.000, 17:27:46.307
80, 20.79, 262.24, -179.12, 10.64, 0.000, 0.000, 0.000, 17:27:46.308
81, 10.58, 262.95, -323.90, 9.03, 0.000, 0.000, 0.000, 17:27:46.323
82, -6.83, 292.71, -170.51, 11.16, 0.000, 0.000, 0.000, 17:27:46.323
83, 17.89, 267.97, -131.33, 12.43, 0.000, 0.000, 0.000, 17:27:46.324
84, 11.89, 263.20, -291.83, 9.09, 0.000, 0.000, 0.000, 17:27:46.324
85, 14.36, 280.61, -238.93, 9.34, 0.000, 0.000, 0.000, 17:27:46.338
86, -4.09, 265.79, -108.16, 11.03, 0.000, 0.000, 0.000, 17:27:46.338
87, -0.07, 263.23, -230.07, 7.71, 0.000, 0.000, 0.000, 17:27:46.352
88, 1.37, 280.00, -271.45, 7.57, 0.000, 0.000, 0.000, 17:27:46.353
89, 104.52, 272.52, -114.46, 12.38, 0.000, 0.000, 0.000, 17:27:46.353
90, 197.72, 243.63, -145.96, 7.62, 0.000, 0.000, 0.000, 17:27:46.353
91, 225.30, 248.18, -274.28, 10.63, 0.000, 0.000, 0.000, 17:27:46.368
92, 259.14, 250.36, -152.72, 6.02, 0.000, 0.000, 0.000, 17:27:46.368
93, 142.47, 228.86, -134.61, 10.46, 0.000, 0.000, 0.000, 17:27:46.383
94, -83.64, 237.55, -331.89, 12.90, 0.000, 0.000, 0.000, 17:27:46.383
95, -231.96, 260.32, -306.12, 10.05, 0.000, 0.000, 0.000, 17:27:46.383
96, -187.79, 255.04, -169.21, 8.67, 0.000, 0.000, 0.000, 17:27:46.384
97, -56.63, 254.38, -277.08, 5.03, 0.000, 0.000, 0.000, 17:27:46.398
98, -22.91, 287.18, -292.74, 8.39, 0.000, 0.000, 0.000, 17:27:46.398
99, -39.53, 277.72, -129.14, 10.00, 0.000, 0.000, 0.000, 17:27:46.413
100, -10.04, 265.50, -171.44, 13.13, 0.000, 0.000, 0.000, 17:27:46.413
101, -13.67, 278.73, -302.41, 10.01, 0.000, 0.000, 0.000, 17:27:46.413
102, -15.50, 288.87, -176.82, 9.98, 0.000, 0.000, 0.000, 17:27:46.413
103, -20.97, 263.77, -123.54, 13.38, 0.000, 0.000, 0.000, 17:27:46.428
104, 15.51, 271.85, -282.45, 7.35, 0.000, 0.000, 0.000, 17:27:46.428
105, 7.10, 286.01, -244.06, 10.08, 0.000, 0.000, 0.000, 17:27:46.443
106, 0.21, 270.69, -109.11, 7.95, 0.000, 0.000, 0.000, 17:27:46.443
107, 17.01, 265.64, -236.58, 13.92, 0.000, 0.000, 0.000, 17:27:46.443
108, 21.19, 289.04, -272.42, 9.09, 0.000, 0.000, 0.000, 17:27:46.444
109, 6.64, 278.13, -128.53, 10.43, 0.000, 0.000, 0.000, 17:27:46.457
110, 15.75, 248.49, -178.30, 8.68, 0.000, 0.000, 0.000, 17:27:46.458
111, 17.11, 250.61, -311.92, 6.81, 0.000, 0.000, 0.000, 17:27:46.473
112, 15.29, 267.43, -189.90, 7.72, 0.000, 0.000, 0.000, 17:27:46.473
113, 14.94, 242.15, -134.88, 10.38, 0.000, 0.000, 0.000, 17:27:46.473
114, 23.13, 248.34, -291.49, 7.45, 0.000, 0.000, 0.000, 17:27:46.473
115, 14.18, 268.64, -252.20, 14.20, 0.000, 0.000, 0.000, 17:27:46.487
116, 24.79, 254.75, -117.24, 10.41, 0.000, 0.000, 0.000, 17:27:46.488
117, 35.13, 252.23, -245.39, 12.13, 0.000, 0.000, 0.000, 17:27:46.503
118, 17.22, 276.31, -289.33, 12.15, 0.000, 0.000, 0.000, 17:27:46.503
119, 22.85, 275.04, -140.56, 7.33, 0.000, 0.000, 0.000, 17:27:46.503
120, 33.92, 262.97, -171.78, 5.80, 0.000, 0.000, 0.000, 17:27:46.504
121, 42.19, 280.06, -305.57, 9.60, 0.000, 0.000, 0.000, 17:27:46.518
122, 21.63, 292.84, -171.65, 7.48, 0.000, 0.000, 0.000, 17:27:46.518
123, 32.25, 264.80, -125.77, 10.49, 0.000, 0.000, 0.000, 17:27:46.532
124, 35.85, 264.47, -281.65, 13.69, 0.000, 0.000, 0.000, 17:27:46.533
125, 31.68, 287.29, -236.23, 11.46, 0.000, 0.000, 0.000, 17:27:46.533
126, 40.28, 271.91, -108.98, 10.55, 0.000, 0.000, 0.000, 17:27:46.533
127, 41.90, 258.00, -241.27, 8.04, 0.000, 0.000, 0.000, 17:27:46.547
128, 29.26, 280.91, -287.47, 10.71, 0.000, 0.000, 0.000, 17:27:46.548
129, 47.94, 267.03, -134.75, 13.87, 0.000, 0.000, 0.000, 17:27:46.562
130, 52.65, 238.72, -181.49, 11.12, 0.000, 0.000, 0.000, 17:27:46.563
131, 51.70, 250.19, -324.50, 10.14, 0.000, 0.000, 0.000, 17:27:46.563
132, 39.75, 262.12, -189.46, 9.62, 0.000, 0.000, 0.000, 17:27:46.563
133, 36.29, 244.72, -129.96, 10.01, 0.000, 0.000, 0.000, 17:27:46.578
134, 36.57, 243.70, -297.12, 5.05, 0.000, 0.000, 0.000, 17:27:46.578
135, 28.15, 268.38, -247.43, 10.78, 0.000, 0.000, 0.000, 17:27:46.593
136, 12.69, 251.21, -121.29, 6.52, 0.000, 0.000, 0.000, 17:27:46.593
137, 26.41, 247.51, -246.83, 9.61, 0.000, 0.000, 0.000, 17:27:46.593
138, -2.40, 277.14, -295.08, 12.46, 0.000, 0.000, 0.000, 17:27:46.594
139, -23.01, 274.06, -148.79, 8.15, 0.000, 0.000, 0.000, 17:27:46.608
140, -30.66, 258.43, -191.94, 5.71, 0.000, 0.000, 0.000, 17:27:46.608
141, -37.08, 265.64, -322.18, 9.92, 0.000, 0.000, 0.000, 17:27:46.623
142, -53.88, 280.25, -193.22, 11.67, 0.000, 0.000, 0.000, 17:27:46.623
143, -53.62, 260.93, -139.27, 10.90, 0.000, 0.000, 0.000, 17:27:46.623
144, -36.21, 265.22, -308.84, 12.44, 0.000, 0.000, 0.000, 17:27:46.623
145, -52.71, 295.74, -245.77, 7.96, 0.000, 0.000, 0.000, 17:27:46.638
146, -47.48, 273.19, -119.85, 10.93, 0.000, 0.000, 0.000, 17:27:46.638
147, -29.68, 260.30, -248.70, 9.55, 0.000, 0.000, 0.000, 17:27:46.652
148, -24.06, 281.21, -296.17, 8.56, 0.000, 0.000, 0.000, 17:27:46.653
149, -35.30, 274.66, -141.45, 9.51, 0.000, 0.000, 0.000, 17:27:46.668
150, 3.54, 261.10, -184.53, 11.59, 0.000, 0.000, 0.000, 17:27:46.668
151, -13.85, 271.89, -317.82, 14.36, 0.000, 0.000, 0.000, 17:27:46.668
152, -1.58, 282.88, -182.54, 8.34, 0.000, 0.000, 0.000, 17:27:46.669
153, 2.52, 246.85, -142.04, 9.43, 0.000, 0.000, 0.000, 17:27:46.683
154, 13.47, 249.90, -302.69, 8.43, 0.000, 0.000, 0.000, 17:27:46.683
155, 2.33, 274.42, -257.22, 8.76, 0.000, 0.000, 0.000, 17:27:46.683
156, -9.90, 264.55, -116.54, 7.52, 0.000, 0.000, 0.000, 17:27:46.683
157, 13.11, 255.96, -246.41, 7.98, 0.000, 0.000, 0.000, 17:27:46.713
158, 10.19, 275.71, -304.57, 9.40, 0.000, 0.000, 0.000, 17:27:46.713
159, 0.73, 278.02, -141.07, 8.79, 0.000, 0.000, 0.000, 17:27:46.714
160, 20.92, 263.99, -184.28, 10.31, 0.000, 0.000, 0.000, 17:27:46.714
161, 16.20, 278.34, -307.17, 11.93, 0.000, 0.000, 0.000, 17:27:46.714
162, 10.26, 279.64, -193.88, 9.94, 0.000, 0.000, 0.000, 17:27:46.714
163, 1.81, 257.71, -134.14, 11.95, 0.000, 0.000, 0.000, 17:27:46.727
164, 20.74, 257.01, -290.76, 12.25, 0.000, 0.000, 0.000, 17:27:46.728
165, 6.95, 274.84, -258.21, 9.14, 0.000, 0.000, 0.000, 17:27:46.742
166, 13.14, 268.13, -109.42, 12.27, 0.000, 0.000, 0.000, 17:27:46.743
167, 25.62, 253.62, -233.60, 11.16, 0.000, 0.000, 0.000, 17:27:46.743
168, 5.77, 279.55, -303.72, 8.02, 0.000, 0.000, 0.000, 17:27:46.743
169, 1.83, 273.06, -138.72, 13.52, 0.000, 0.000, 0.000, 17:27:46.758
170, 31.62, 254.35, -181.08, 9.90, 0.000, 0.000, 0.000, 17:27:46.758
171, 13.86, 279.17, -311.80, 13.96, 0.000, 0.000, 0.000, 17:27:46.773
172, 3.42, 287.62, -191.19, 13.45, 0.000, 0.000, 0.000, 17:27:46.773
173, 12.65, 267.28, -135.52, 9.18, 0.000, 0.000, 0.000, 17:27:46.773
174, 18.15, 269.70, -291.42, 6.66, 0.000, 0.000, 0.000, 17:27:46.773
175, 11.87, 291.42, -250.76, 6.77, 0.000, 0.000, 0.000, 17:27:46.787
176, 15.01, 269.67, -119.70, 9.03, 0.000, 0.000, 0.000, 17:27:46.788
177, 12.60, 264.44, -237.48, 11.29, 0.000, 0.000, 0.000, 17:27:46.802
178, 14.36, 292.17, -299.05, 7.05, 0.000, 0.000, 0.000, 17:27:46.803
179, 4.63, 295.55, -140.55, 14.40, 0.000, 0.000, 0.000, 17:27:46.817
180, 4.38, 273.54, -179.00, 10.04, 0.000, 0.000, 0.000, 17:27:46.818
181, 31.70, 288.72, -299.39, 6.61, 0.000, 0.000, 0.000, 17:27:46.818
182, 7.58, 301.12, -184.28, 5.15, 0.000, 0.000, 0.000, 17:27:46.818
183, 10.74, 266.21, -141.62, 10.94, 0.000, 0.000, 0.000, 17:27:46.833
184, 14.50, 268.20, -293.09, 16.54, 0.000, 0.000, 0.000, 17:27:46.833
185, 21.43, 288.26, -251.34, 7.47, 0.000, 0.000, 0.000, 17:27:46.847
186, 7.63, 266.01, -127.80, 11.65, 0.000, 0.000, 0.000, 17:27:46.848
187, 5.71, 255.10, -235.01, 6.32, 0.000, 0.000, 0.000, 17:27:46.848
188, 8.82, 282.75, -298.80, 9.50, 0.000, 0.000, 0.000, 17:27:46.848
189, 7.54, 281.37, -142.09, 11.79, 0.000, 0.000, 0.000, 17:27:46.863
190, 10.86, 257.88, -180.56, 11.68, 0.000, 0.000, 0.000, 17:27:46.864
191, 15.03, 269.18, -314.97, 5.28, 0.000, 0.000, 0.000, 17:27:46.864
192, -0.30, 284.70, -195.09, 8.32, 0.000, 0.000, 0.000, 17:27:46.865
193, 15.44, 268.80, -133.79, 10.80, 0.000, 0.000, 0.000, 17:27:46.881
194, 20.43, 259.46, -295.42, 12.12, 0.000, 0.000, 0.000, 17:27:46.882
195, 2.62, 288.63, -244.16, 10.49, 0.000, 0.000, 0.000, 17:27:46.893
196, -0.91, 272.79, -112.67, 7.06, 0.000, 0.000, 0.000, 17:27:46.893
197, 19.60, 251.71, -229.40, 13.04, 0.000, 0.000, 0.000, 17:27:46.893
198, -1.19, 282.90, -293.87, 4.07, 0.000, 0.000, 0.000, 17:27:46.893
199, 13.07, 265.29, -147.30, 12.63, 0.000, 0.000, 0.000, 17:27:46.908
200, 18.55, 247.00, -180.22, 8.61, 0.000, 0.000, 0.000, 17:27:46.908
0, 20.39, 260.91, -306.19, 10.77, 0.000, 0.000, 0.000, 17:27:46.908
1, 1.08, 268.60, -195.42, 13.20, 0.000, 0.000, 0.000, 17:27:46.922
2, 10.75, 243.14, -138.93, 8.94, 0.000, 0.000, 0.000, 17:27:46.923
3, 26.70, 249.11, -292.80, 9.95, 0.000, 0.000, 0.000, 17:27:46.937
4, 15.65, 270.19, -263.08, 10.05, 0.000, 0.000, 0.000, 17:27:46.938
5, 19.96, 256.05, -127.81, 8.21, 0.000, 0.000, 0.000, 17:27:46.938
6, 18.81, 247.78, -237.46, 9.53, 0.000, 0.000, 0.000, 17:27:46.938
7, 11.04, 271.57, -297.02, 13.21, 0.000, 0.000, 0.000, 17:27:46.952
8, -8.49, 269.16, -149.24, 7.16, 0.000, 0.000, 0.000, 17:27:46.953
9, 11.49, 260.72, -177.95, 12.98, 0.000, 0.000, 0.000, 17:27:46.968
10, 7.58, 276.61, -307.63, 15.69, 0.000, 0.000, 0.000, 17:27:46.968
11, -8.42, 283.80, -194.60, 7.76, 0.000, 0.000, 0.000, 17:27:46.969
12, 7.00, 260.37, -136.89, 3.21, 0.000, 0.000, 0.000, 17:27:46.969
13, 12.22, 261.01, -292.89, 6.97, 0.000, 0.000, 0.000, 17:27:46.983
14, 9.89, 289.04, -248.39, 7.55, 0.000, 0.000, 0.000, 17:27:46.983
15, 6.89, 278.25, -120.05, 10.20, 0.000, 0.000, 0.000, 17:27:46.998
16, 22.89, 257.28, -231.66, 11.40, 0.000, 0.000, 0.000, 17:27:46.998
17, 11.11, 286.73, -294.13, 9.72, 0.000, 0.000, 0.000, 17:27:46.998
18, 2.72, 274.39, -149.44, 11.89, 0.000, 0.000, 0.000, 17:27:46.999
19, 16.52, 251.07, -178.12, 9.80, 0.000, 0.000, 0.000, 17:27:47.013
20, 2.06, 255.55, -317.17, 7.88, 0.000, 0.000, 0.000, 17:27:47.013
21, -16.59, 271.92, -188.03, 12.68, 0.000, 0.000, 0.000, 17:27:47.027
22, 24.82, 240.38, -126.28, 11.69, 0.000, 0.000, 0.000, 17:27:47.027
23, 122.82, 244.26, -277.83, 10.51, 0.000, 0.000, 0.000, 17:27:47.028
24, 192.93, 263.42, -223.81, 12.47, 0.000, 0.000, 0.000, 17:27:47.028
25, 248.53, 244.91, -78.33, 11.07, 0.000, 0.000, 0.000, 17:27:47.043
26, 246.50, 227.72, -202.68, 7.29, 0.000, 0.000, 0.000, 17:27:47.043
27, 87.13, 247.58, -295.35, 7.63, 0.000, 0.000, 0.000, 17:27:47.058
28, -116.48, 262.55, -172.76, 12.33, 0.000, 0.000, 0.000, 17:27:47.058
29, -254.80, 248.62, -235.54, 11.03, 0.000, 0.000, 0.000, 17:27:47.058
30, -156.83, 283.01, -360.66, 11.35, 0.000, 0.000, 0.000, 17:27:47.059
31, -59.50, 300.90, -224.69, 13.06, 0.000, 0.000, 0.000, 17:27:47.073
32, 5.78, 280.85, -132.58, 9.63, 0.000, 0.000, 0.000, 17:27:47.073
33, -11.20, 276.97, -283.99, 8.10, 0.000, 0.000, 0.000, 17:27:47.088
34, -13.00, 295.83, -244.00, 10.32, 0.000, 0.000, 0.000, 17:27:47.088
35, -23.60, 281.78, -100.84, 12.00, 0.000, 0.000, 0.000, 17:27:47.088
36, -2.94, 272.37, -226.42, 10.13, 0.000, 0.000, 0.000, 17:27:47.089
37, 1.27, 293.16, -290.00, 10.98, 0.000, 0.000, 0.000, 17:27:47.103
38, -1.71, 281.51, -144.95, 9.51, 0.000, 0.000, 0.000, 17:27:47.103
39, 6.00, 252.97, -169.00, 10.53, 0.000, 0.000, 0.000, 17:27:47.118
40, 15.70, 267.08, -309.95, 13.18, 0.000, 0.000, 0.000, 17:27:47.118
41, 7.08, 259.85, -196.68, 7.88, 0.000, 0.000, 0.000, 17:27:47.119
42, 12.65, 234.47, -144.21, 10.81, 0.000, 0.000, 0.000, 17:27:47.119
43, 17.96, 238.50, -287.21, 11.09, 0.000, 0.000, 0.000, 17:27:47.132
44, 9.42, 266.89, -258.46, 8.19, 0.000, 0.000, 0.000, 17:27:47.132
45, 16.22, 248.96, -123.58, 7.69, 0.000, 0.000, 0.000, 17:27:47.148
46, 28.77, 245.41, -232.61, 10.80, 0.000, 0.000, 0.000, 17:27:47.148
47, 27.17, 269.81, -292.28, 8.90, 0.000, 0.000, 0.000, 17:27:47.148
48, 21.27, 273.89, -139.99, 4.67, 0.000, 0.000, 0.000, 17:27:47.148
49, 23.49, 250.17, -171.85, 10.31, 0.000, 0.000, 0.000, 17:27:47.163
50, 23.13, 275.30, -303.26, 11.17, 0.000, 0.000, 0.000, 17:27:47.163
51, 18.72, 287.56, -190.59, 10.47, 0.000, 0.000, 0.000, 17:27:47.178
52, 23.95, 274.44, -119.85, 10.32, 0.000, 0.000, 0.000, 17:27:47.178
53, 36.91, 275.42, -278.35, 15.04, 0.000, 0.000, 0.000, 17:27:47.179
54, 26.66, 299.84, -245.11, 10.34, 0.000, 0.000, 0.000, 17:27:47.179
55, 29.98, 279.39, -114.91, 10.87, 0.000, 0.000, 0.000, 17:27:47.192
56, 36.90, 262.26, -231.41, 7.41, 0.000, 0.000, 0.000, 17:27:47.193
57, 24.60, 282.32, -286.68, 11.44, 0.000, 0.000, 0.000, 17:27:47.207
58, 34.22, 276.11, -137.91, 12.71, 0.000, 0.000, 0.000, 17:27:47.207
59, 42.30, 245.35, -174.95, 7.07, 0.000, 0.000, 0.000, 17:27:47.208
60, 46.23, 256.78, -311.41, 11.87, 0.000, 0.000, 0.000, 17:27:47.208
61, 32.34, 264.10, -200.23, 7.43, 0.000, 0.000, 0.000, 17:27:47.223
62, 51.79, 237.29, -123.89, 6.94, 0.000, 0.000, 0.000, 17:27:47.223
63, 49.59, 239.49, -285.78, 11.24, 0.000, 0.000, 0.000, 17:27:47.237
64, 51.51, 259.79, -258.60, 6.94, 0.000, 0.000, 0.000, 17:27:47.238
65, 34.87, 250.17, -115.44, 9.18, 0.000, 0.000, 0.000, 17:27:47.238
66, 55.11, 244.25, -226.88, 9.72, 0.000, 0.000, 0.000, 17:27:47.238
67, 27.97, 264.43, -303.69, 11.85, 0.000, 0.000, 0.000, 17:27:47.253
68, 25.45, 269.40, -143.36, 12.90, 0.000, 0.000, 0.000, 17:27:47.253
69, 35.88, 250.61, -177.24, 12.10, 0.000, 0.000, 0.000, 17:27:47.268
70, 18.05, 269.24, -313.90, 8.29, 0.000, 0.000, 0.000, 17:27:47.268
71, -5.30, 274.85, -203.99, 10.27, 0.000, 0.000, 0.000, 17:27:47.268
72, -1.22, 268.03, -123.27, 9.70, 0.000, 0.000, 0.000, 17:27:47.269
73, -16.33, 268.22, -286.35, 9.12, 0.000, 0.000, 0.000, 17:27:47.283
74, -46.61, 302.33, -254.23, 8.53, 0.000, 0.000, 0.000, 17:27:47.284
75, -54.41, 274.41, -126.82, 11.59, 0.000, 0.000, 0.000, 17:27:47.297
76, -46.52, 269.30, -246.21, 13.94, 0.000, 0.000, 0.000, 17:27:47.298
77, -50.61, 290.94, -299.87, 8.71, 0.000, 0.000, 0.000, 17:27:47.298
78, -54.27, 286.39, -162.78, 10.62, 0.000, 0.000, 0.000, 17:27:47.298
79, -47.77, 259.38, -183.26, 8.57, 0.000, 0.000, 0.000, 17:27:47.313
80, -35.40, 273.30, -323.72, 11.87, 0.000, 0.000, 0.000, 17:27:47.314
81, -43.50, 284.05, -206.69, 10.30, 0.000, 0.000, 0.000, 17:27:47.328
82, -25.38, 253.34, -137.81, 14.37, 0.000, 0.000, 0.000, 17:27:47.328
83, -16.00, 248.94, -304.95, 8.96, 0.000, 0.000, 0.000, 17:27:47.328
84, -8.41, 272.87, -270.33, 9.45, 0.000, 0.000, 0.000, 17:27:47.328
85, -11.81, 254.83, -130.16, 10.14, 0.000, 0.000, 0.000, 17:27:47.342
86, 4.44, 243.38, -236.35, 9.13, 0.000, 0.000, 0.000, 17:27:47.343
87, -2.98, 273.80, -308.00, 9.40, 0.000, 0.000, 0.000, 17:27:47.358
88, -1.24, 275.91, -147.65, 14.21, 0.000, 0.000, 0.000, 17:27:47.358
89, 9.97, 252.28, -172.09, 9.28, 0.000, 0.000, 0.000, 17:27:47.358
90, 12.59, 264.74, -319.74, 6.98, 0.000, 0.000, 0.000, 17:27:47.359
91, -3.68, 282.70, -206.19, 10.42, 0.000, 0.000, 0.000, 17:27:47.373
92, 14.82, 263.99, -130.37, 7.72, 0.000, 0.000, 0.000, 17:27:47.373
93, 20.89, 268.44, -279.65, 8.38, 0.000, 0.000, 0.000, 17:27:47.388
94, 9.37, 293.35, -248.88, 7.80, 0.000, 0.000, 0.000, 17:27:47.388
95, 15.37, 280.13, -112.38, 10.78, 0.000, 0.000, 0.000, 17:27:47.388
96, 15.52, 264.77, -225.12, 10.87, 0.000, 0.000, 0.000, 17:27:47.388
97, 23.22, 283.48, -300.54, 9.87, 0.000, 0.000, 0.000, 17:27:47.402
98, 6.21, 280.15, -140.38, 1.97, 0.000, 0.000, 0.000, 17:27:47.402
99, 5.58, 263.75, -157.10, 10.49, 0.000, 0.000, 0.000, 17:27:47.418
100, 14.38, 273.55, -304.33, 11.34, 0.000, 0.000, 0.000, 17:27:47.418
101, 7.63, 284.38, -201.60, 8.24, 0.000, 0.000, 0.000, 17:27:47.419
102, 24.53, 262.00, -120.05, 14.13, 0.000, 0.000, 0.000, 17:27:47.419
103, 13.38, 256.17, -282.87, 9.28, 0.000, 0.000, 0.000, 17:27:47.432
104, 2.25, 275.24, -257.77, 2.49, 0.000, 0.000, 0.000, 17:27:47.433
105, 14.17, 266.90, -122.43, 12.32, 0.000, 0.000, 0.000, 17:27:47.448
106, 21.19, 242.12, -244.11, 14.14, 0.000, 0.000, 0.000, 17:27:47.448
107, 19.19, 264.78, -305.28, 10.52, 0.000, 0.000, 0.000, 17:27:47.448
108, 2.03, 274.26, -145.42, 12.19, 0.000, 0.000, 0.000, 17:27:47.449
109, 16.49, 251.81, -171.09, 11.26, 0.000, 0.000, 0.000, 17:27:47.462
110, 19.27, 266.77, -314.76, 7.75, 0.000, 0.000, 0.000, 17:27:47.463
111, 9.10, 286.26, -206.63, 9.64, 0.000, 0.000, 0.000, 17:27:47.478
112, 7.08, 257.87, -126.35, 10.29, 0.000, 0.000, 0.000, 17:27:47.478
113, 20.59, 265.68, -280.42, 10.97, 0.000, 0.000, 0.000, 17:27:47.478
114, 3.45, 289.29, -262.29, 8.68, 0.000, 0.000, 0.000, 17:27:47.478
115, 7.95, 278.55, -116.42, 10.29, 0.000, 0.000, 0.000, 17:27:47.492
116, 12.31, 265.65, -221.43, 11.37, 0.000, 0.000, 0.000, 17:27:47.493
117, 6.75, 287.54, -298.23, 7.54, 0.000, 0.000, 0.000, 17:27:47.508
118, 7.80, 284.88, -148.91, 8.42, 0.000, 0.000, 0.000, 17:27:47.508
119, 23.63, 256.69, -168.05, 9.80, 0.000, 0.000, 0.000, 17:27:47.508
120, 15.16, 265.92, -319.12, 10.27, 0.000, 0.000, 0.000, 17:27:47.508
121, 13.97, 283.37, -195.88, 10.26, 0.000, 0.000, 0.000, 17:27:47.523
122, -3.42, 256.20, -130.36, 11.25, 0.000, 0.000, 0.000, 17:27:47.523
123, 10.80, 249.71, -279.77, 14.25, 0.000, 0.000, 0.000, 17:27:47.538
124, 13.07, 272.80, -256.61, 10.90, 0.000, 0.000, 0.000, 17:27:47.538
125, 10.69, 255.78, -123.82, 5.80, 0.000, 0.000, 0.000, 17:27:47.538
126, 12.31, 234.38, -237.23, 6.37, 0.000, 0.000, 0.000, 17:27:47.538
127, 16.69, 257.02, -303.53, 6.56, 0.000, 0.000, 0.000, 17:27:47.552
128, 5.56, 261.79, -152.75, 11.58, 0.000, 0.000, 0.000, 17:27:47.553
129, 19.48, 230.64, -172.83, 13.20, 0.000, 0.000, 0.000, 17:27:47.568
130, 4.33, 262.76, -299.43, 7.14, 0.000, 0.000, 0.000, 17:27:47.568
131, 9.39, 275.99, -200.08, 9.97, 0.000, 0.000, 0.000, 17:27:47.568
132, 10.78, 257.96, -128.90, 10.80, 0.000, 0.000, 0.000, 17:27:47.569
133, 12.63, 258.82, -285.33, 13.29, 0.000, 0.000, 0.000, 17:27:47.583
134, 17.68, 289.79, -263.28, 9.01, 0.000, 0.000, 0.000, 17:27:47.583
135, 11.80, 277.27, -116.57, 9.17, 0.000, 0.000, 0.000, 17:27:47.597
136, 18.18, 266.15, -224.16, 7.28, 0.000, 0.000, 0.000, 17:27:47.597
137, 22.10, 284.89, -302.47, 8.58, 0.000, 0.000, 0.000, 17:27:47.598
138, 11.49, 290.68, -142.64, 7.35, 0.000, 0.000, 0.000, 17:27:47.598
139, 18.10, 258.61, -165.58, 14.58, 0.000, 0.000, 0.000, 17:27:47.613
140, 22.73, 268.48, -319.78, 13.28, 0.000, 0.000, 0.000, 17:27:47.613
141, 8.01, 284.65, -199.23, 9.00, 0.000, 0.000, 0.000, 17:27:47.627
142, -3.25, 257.57, -127.56, 10.93, 0.000, 0.000, 0.000, 17:27:47.628
143, 2.34, 247.23, -291.72, 8.40, 0.000, 0.000, 0.000, 17:27:47.628
144, -1.38, 271.79, -273.81, 9.01, 0.000, 0.000, 0.000, 17:27:47.628
145, 0.43, 256.41, -122.09, 7.53, 0.000, 0.000, 0.000, 17:27:47.643
146, 24.71, 242.07, -235.18, 10.10, 0.000, 0.000, 0.000, 17:27:47.643
147, 6.31, 264.26, -315.46, 6.65, 0.000, 0.000, 0.000, 17:27:47.658
148, 2.23, 271.16, -149.99, 9.87, 0.000, 0.000, 0.000, 17:27:47.658
149, 13.56, 252.73, -169.23, 11.98, 0.000, 0.000, 0.000, 17:27:47.658
150, 19.46, 269.08, -312.48, 11.14, 0.000, 0.000, 0.000, 17:27:47.658
151, 5.28, 291.25, -202.68, 7.05, 0.000, 0.000, 0.000, 17:27:47.673
152, 6.12, 263.80, -126.43, 11.18, 0.000, 0.000, 0.000, 17:27:47.673
153, 13.01, 264.28, -272.20, 6.14, 0.000, 0.000, 0.000, 17:27:47.688
154, 13.76, 287.16, -260.23, 11.90, 0.000, 0.000, 0.000, 17:27:47.688
155, -7.27, 275.44, -107.79, 9.66, 0.000, 0.000, 0.000, 17:27:47.688
156, 27.73, 254.00, -209.40, 10.31, 0.000, 0.000, 0.000, 17:27:47.688
157, 93.43, 271.63, -288.45, 10.64, 0.000, 0.000, 0.000, 17:27:47.702
158, 201.51, 267.95, -117.84, 8.16, 0.000, 0.000, 0.000, 17:27:47.703
159, 233.48, 232.13, -115.56, 12.94, 0.000, 0.000, 0.000, 17:27:47.718
160, 247.89, 240.97, -275.68, 11.43, 0.000, 0.000, 0.000, 17:27:47.718
161, 102.50, 262.04, -197.82, 12.70, 0.000, 0.000, 0.000, 17:27:47.718
162, -114.02, 245.47, -155.20, 7.00, 0.000, 0.000, 0.000, 17:27:47.719
163, -241.06, 256.84, -325.60, 11.89, 0.000, 0.000, 0.000, 17:27:47.733
164, -187.84, 284.57, -316.99, 8.64, 0.000, 0.000, 0.000, 17:27:47.733
165, -48.61, 283.45, -154.41, 12.01, 0.000, 0.000, 0.000, 17:27:47.763
166, 5.71, 267.87, -236.03, 9.94, 0.000, 0.000, 0.000, 17:27:47.763
167, -5.56, 290.41, -306.58, 9.56, 0.000, 0.000, 0.000, 17:27:47.764
168, -26.68, 286.35, -147.21, 8.91, 0.000, 0.000, 0.000, 17:27:47.764
169, -1.67, 268.11, -153.32, 11.45, 0.000, 0.000, 0.000, 17:27:47.764
170, -10.81, 279.51, -304.44, 7.67, 0.000, 0.000, 0.000, 17:27:47.764
171, -13.63, 294.38, -201.49, 10.79, 0.000, 0.000, 0.000, 17:27:47.778
172, 11.63, 270.33, -117.63, 7.40, 0.000, 0.000, 0.000, 17:27:47.778
173, 13.72, 263.12, -269.43, 10.50, 0.000, 0.000, 0.000, 17:27:47.778
174, 2.55, 292.06, -263.30, 4.29, 0.000, 0.000, 0.000, 17:27:47.778
175, -10.56, 270.69, -108.80, 12.74, 0.000, 0.000, 0.000, 17:27:47.793
176, 34.05, 257.58, -219.12, 7.18, 0.000, 0.000, 0.000, 17:27:47.793
177, 15.35, 271.12, -302.45, 11.57, 0.000, 0.000, 0.000, 17:27:47.808
178, 21.52, 270.43, -154.26, 8.48, 0.000, 0.000, 0.000, 17:27:47.808
179, 20.40, 246.35, -161.71, 11.42, 0.000, 0.000, 0.000, 17:27:47.808
180, 21.90, 259.13, -308.49, 9.60, 0.000, 0.000, 0.000, 17:27:47.808
181, 6.25, 267.61, -200.38, 9.70, 0.000, 0.000, 0.000, 17:27:47.823
182, 11.60, 251.59, -127.19, 6.73, 0.000, 0.000, 0.000, 17:27:47.823
183, 26.03, 249.81, -278.06, 11.98, 0.000, 0.000, 0.000, 17:27:47.838
184, 25.76, 272.92, -256.82, 9.95, 0.000, 0.000, 0.000, 17:27:47.838
185, 26.19, 257.02, -122.43, 12.07, 0.000, 0.000, 0.000, 17:27:47.838
186, 32.34, 243.32, -223.10, 13.95, 0.000, 0.000, 0.000, 17:27:47.838
187, 21.29, 273.15, -299.77, 10.60, 0.000, 0.000, 0.000, 17:27:47.853
188, 23.63, 275.31, -147.75, 6.05, 0.000, 0.000, 0.000, 17:27:47.853
189, 45.47, 258.20, -149.30, 14.66, 0.000, 0.000, 0.000, 17:27:47.868
190, 23.43, 271.26, -295.65, 12.13, 0.000, 0.000, 0.000, 17:27:47.868
191, 29.18, 288.29, -207.98, 7.72, 0.000, 0.000, 0.000, 17:27:47.868
192, 32.91, 265.21, -119.12, 6.27, 0.000, 0.000, 0.000, 17:27:47.869
193, 52.44, 264.31, -265.28, 8.69, 0.000, 0.000, 0.000, 17:27:47.882
194, 30.94, 277.81, -262.14, 7.30, 0.000, 0.000, 0.000, 17:27:47.883
195, 41.89, 267.78, -112.34, 11.67, 0.000, 0.000, 0.000, 17:27:47.898
196, 53.79, 251.60, -214.04, 13.86, 0.000, 0.000, 0.000, 17:27:47.898
197, 47.60, 272.37, -301.48, 10.12, 0.000, 0.000, 0.000, 17:27:47.898
198, 38.84, 267.22, -154.64, 13.94, 0.000, 0.000, 0.000, 17:27:47.899
199, 52.65, 243.79, -156.49, 9.64, 0.000, 0.000, 0.000, 17:27:47.913
200, 36.20, 262.18, -303.74, 10.45, 0.000, 0.000, 0.000, 17:27:47.913
0, 46.43, 267.39, -213.09, 7.12, 0.000, 0.000, 0.000, 17:27:47.913
1, 27.12, 246.34, -117.14, 11.71, 0.000, 0.000, 0.000, 17:27:47.928
2, 22.81, 242.84, -278.64, 10.69, 0.000, 0.000, 0.000, 17:27:47.928
3, 20.95, 274.80, -278.26, 6.10, 0.000, 0.000, 0.000, 17:27:47.943
4, -7.99, 259.47, -125.93, 11.45, 0.000, 0.000, 0.000, 17:27:47.943
5, 5.76, 253.94, -223.81, 12.01, 0.000, 0.000, 0.000, 17:27:47.943
6, -23.16, 267.82, -317.63, 7.89, 0.000, 0.000, 0.000, 17:27:47.944
7, -43.77, 283.48, -155.39, 11.51, 0.000, 0.000, 0.000, 17:27:47.957
8, -42.39, 261.79, -166.26, 6.19, 0.000, 0.000, 0.000, 17:27:47.958
9, -44.50, 277.70, -314.70, 11.70, 0.000, 0.000, 0.000, 17:27:47.988
10, -50.53, 291.06, -224.80, 12.98, 0.000, 0.000, 0.000, 17:27:47.988
11, -63.72, 266.62, -132.75, 11.60, 0.000, 0.000, 0.000, 17:27:47.988
12, -39.63, 268.10, -287.24, 8.92, 0.000, 0.000, 0.000, 17:27:47.989
13, -38.06, 289.52, -283.08, 10.16, 0.000, 0.000, 0.000, 17:27:47.989
14, -42.45, 274.24, -130.95, 12.68, 0.000, 0.000, 0.000, 17:27:47.989
15, -23.68, 257.46, -229.98, 11.85, 0.000, 0.000, 0.000, 17:27:48.003
16, -22.88, 284.63, -311.31, 8.69, 0.000, 0.000, 0.000, 17:27:48.003
17, -13.73, 292.38, -160.70, 13.18, 0.000, 0.000, 0.000, 17:27:48.003
18, -7.69, 251.73, -166.53, 7.61, 0.000, 0.000, 0.000, 17:27:48.004
19, 1.32, 255.10, -315.00, 10.73, 0.000, 0.000, 0.000, 17:27:48.018
20, -2.80, 274.28, -231.25, 10.09, 0.000, 0.000, 0.000, 17:27:48.018
21, 0.82, 253.55, -124.05, 11.83, 0.000, 0.000, 0.000, 17:27:48.048
22, 10.16, 257.48, -272.22, 10.70, 0.000, 0.000, 0.000, 17:27:48.048
23, 7.86, 282.44, -268.77, 8.74, 0.000, 0.000, 0.000, 17:27:48.048
24, -10.71, 267.69, -122.09, 8.65, 0.000, 0.000, 0.000, 17:27:48.049
25, 19.68, 250.78, -216.53, 10.37, 0.000, 0.000, 0.000, 17:27:48.049
26, 9.62, 271.67, -307.11, 9.91, 0.000, 0.000, 0.000, 17:27:48.049
27, 18.08, 273.35, -162.50, 9.43, 0.000, 0.000, 0.000, 17:27:48.062
28, 16.42, 262.55, -157.30, 9.26, 0.000, 0.000, 0.000, 17:27:48.062
29, 26.43, 281.21, -301.10, 5.48, 0.000, 0.000, 0.000, 17:27:48.078
30, 5.21, 295.92, -202.02, 7.88, 0.000, 0.000, 0.000, 17:27:48.078
31, 0.53, 274.39, -119.28, 9.67, 0.000, 0.000, 0.000, 17:27:48.078
32, 21.23, 270.87, -260.28, 7.99, 0.000, 0.000, 0.000, 17:27:48.078
33, 15.49, 289.26, -266.30, 10.11, 0.000, 0.000, 0.000, 17:27:48.093
34, 15.27, 274.21, -127.99, 15.19, 0.000, 0.000, 0.000, 17:27:48.093
35, 17.86, 259.16, -214.23, 11.74, 0.000, 0.000, 0.000, 17:27:48.093
36, 5.16, 279.41, -300.41, 15.64, 0.000, 0.000, 0.000, 17:27:48.094
37, 8.93, 272.76, -160.55, 15.28, 0.000, 0.000, 0.000, 17:27:48.108
38, 16.60, 246.90, -163.41, 11.28, 0.000, 0.000, 0.000, 17:27:48.108
39, 15.70, 251.69, -305.74, 11.41, 0.000, 0.000, 0.000, 17:27:48.123
40, 11.47, 262.44, -225.70, 11.24, 0.000, 0.000, 0.000, 17:27:48.123
41, 7.39, 241.63, -140.03, 10.99, 0.000, 0.000, 0.000, 17:27:48.123
42, 28.13, 243.18, -277.45, 11.05, 0.000, 0.000, 0.000, 17:27:48.124
43, 5.89, 271.71, -277.58, 12.24, 0.000, 0.000, 0.000, 17:27:48.137
44, 8.10, 262.10, -135.08, 9.79, 0.000, 0.000, 0.000, 17:27:48.138
45, 17.96, 246.66, -216.67, 13.50, 0.000, 0.000, 0.000, 17:27:48.153
46, 21.51, 267.90, -317.70, 11.40, 0.000, 0.000, 0.000, 17:27:48.153
47, 9.64, 269.73, -171.85, 13.47, 0.000, 0.000, 0.000, 17:27:48.153
48, 6.79, 260.00, -157.68, 11.98, 0.000, 0.000, 0.000, 17:27:48.153
49, 8.28, 266.34, -312.24, 13.74, 0.000, 0.000, 0.000, 17:27:48.168
50, 11.07, 293.43, -209.54, 11.56, 0.000, 0.000, 0.000, 17:27:48.168
51, 14.47, 269.43, -117.28, 8.87, 0.000, 0.000, 0.000, 17:27:48.182
52, 26.28, 265.25, -267.56, 12.49, 0.000, 0.000, 0.000, 17:27:48.183
53, 8.55, 291.71, -271.60, 4.75, 0.000, 0.000, 0.000, 17:27:48.183
54, 4.97, 276.30, -117.52, 14.08, 0.000, 0.000, 0.000, 17:27:48.183
55, 16.13, 263.06, -206.98, 18.81, 0.000, 0.000, 0.000, 17:27:48.198
56, 11.63, 285.41, -299.98, 8.64, 0.000, 0.000, 0.000, 17:27:48.198
57, 3.90, 281.60, -163.57, 10.45, 0.000, 0.000, 0.000, 17:27:48.212
58, 9.33, 256.80, -155.69, 15.68, 0.000, 0.000, 0.000, 17:27:48.213
59, 15.15, 268.57, -299.42, 17.12, 0.000, 0.000, 0.000, 17:27:48.213
60, 18.99, 275.45, -218.52, 9.18, 0.000, 0.000, 0.000, 17:27:48.213
61, 2.11, 250.74, -120.03, 10.71, 0.000, 0.000, 0.000, 17:27:48.228
62, 10.54, 237.51, -277.19, 5.89, 0.000, 0.000, 0.000, 17:27:48.228
63, 1.09, 264.96, -275.09, 7.09, 0.000, 0.000, 0.000, 17:27:48.242
64, 10.35, 258.56, -124.86, 9.85, 0.000, 0.000, 0.000, 17:27:48.243
65, 11.45, 247.13, -209.20, 7.20, 0.000, 0.000, 0.000, 17:27:48.243
66, 4.24, 267.68, -315.19, 5.25, 0.000, 0.000, 0.000, 17:27:48.243
67, 11.00, 272.62, -164.59, 10.58, 0.000, 0.000, 0.000, 17:27:48.258
68, 24.02, 256.85, -156.38, 7.68, 0.000, 0.000, 0.000, 17:27:48.258
69, 11.40, 267.22, -305.27, 10.41, 0.000, 0.000, 0.000, 17:27:48.273
70, 8.09, 290.59, -215.62, 5.35, 0.000, 0.000, 0.000, 17:27:48.273
71, 19.60, 267.10, -111.43, 13.11, 0.000, 0.000, 0.000, 17:27:48.273
72, 20.62, 260.89, -274.53, 10.26, 0.000, 0.000, 0.000, 17:27:48.273
73, 17.28, 287.27, -282.06, 11.24, 0.000, 0.000, 0.000, 17:27:48.287
74, 21.99, 273.44, -126.00, 9.70, 0.000, 0.000, 0.000, 17:27:48.288
75, 5.70, 252.29, -209.91, 10.19, 0.000, 0.000, 0.000, 17:27:48.303
76, 9.73, 275.83, -312.24, 10.07, 0.000, 0.000, 0.000, 17:27:48.303
77, -7.15, 293.02, -153.74, 11.81, 0.000, 0.000, 0.000, 17:27:48.303
78, 6.67, 261.85, -158.21, 9.10, 0.000, 0.000, 0.000, 17:27:48.304
79, 15.40, 269.70, -312.48, 13.40, 0.000, 0.000, 0.000, 17:27:48.317
80, -0.77, 282.52, -222.15, 2.94, 0.000, 0.000, 0.000, 17:27:48.318
81, 6.88, 262.33, -118.46, 14.95, 0.000, 0.000, 0.000, 17:27:48.332
82, 22.21, 259.12, -270.62, 6.53, 0.000, 0.000, 0.000, 17:27:48.333
83, 6.38, 275.37, -278.98, 9.43, 0.000, 0.000, 0.000, 17:27:48.333
84, 13.24, 265.38, -120.94, 8.68, 0.000, 0.000, 0.000, 17:27:48.333
85, 20.60, 244.38, -212.93, 6.16, 0.000, 0.000, 0.000, 17:27:48.347
86, 10.37, 261.60, -315.34, 9.22, 0.000, 0.000, 0.000, 17:27:48.348
87, -6.82, 275.04, -154.53, 14.31, 0.000, 0.000, 0.000, 17:27:48.363
88, 1.48, 252.45, -146.41, 11.50, 0.000, 0.000, 0.000, 17:27:48.363
89, 4.17, 258.47, -295.36, 8.56, 0.000, 0.000, 0.000, 17:27:48.363
90, 66.71, 286.69, -201.94, 9.04, 0.000, 0.000, 0.000, 17:27:48.363
91, 153.06, 258.04, -98.09, 6.94, 0.000, 0.000, 0.000, 17:27:48.377
92, 233.51, 248.94, -220.91, 0.49, 0.000, 0.000, 0.000, 17:27:48.378
93, 244.69, 257.72, -233.47, 9.23, 0.000, 0.000, 0.000, 17:27:48.393
94, 171.75, 247.14, -91.06, 3.83, 0.000, 0.000, 0.000, 17:27:48.393
95, -29.67, 239.54, -211.91, 4.30, 0.000, 0.000, 0.000, 17:27:48.393
96, -183.08, 270.04, -359.21, 7.32, 0.000, 0.000, 0.000, 17:27:48.393
97, -238.97, 287.23, -211.52, 10.99, 0.000, 0.000, 0.000, 17:27:48.407
98, -84.14, 262.68, -195.97, 6.13, 0.000, 0.000, 0.000, 17:27:48.408
99, 1.20, 282.09, -329.78, 6.48, 0.000, 0.000, 0.000, 17:27:48.422
100, -11.46, 295.55, -221.55, 11.49, 0.000, 0.000, 0.000, 17:27:48.422
101, -18.19, 267.31, -109.80, 9.52, 0.000, 0.000, 0.000, 17:27:48.423
102, -15.58, 256.76, -259.26, 7.23, 0.000, 0.000, 0.000, 17:27:48.423
103, -20.80, 274.10, -274.61, 10.99, 0.000, 0.000, 0.000, 17:27:48.438
104, -10.16, 257.72, -126.05, 5.38, 0.000, 0.000, 0.000, 17:27:48.438
105, 2.73, 249.70, -203.97, 11.59, 0.000, 0.000, 0.000, 17:27:48.452
106, -2.83, 263.84, -306.57, 11.24, 0.000, 0.000, 0.000, 17:27:48.453
107, -0.71, 275.05, -157.18, 6.42, 0.000, 0.000, 0.000, 17:27:48.453
108, 8.38, 254.41, -150.54, 11.87, 0.000, 0.000, 0.000, 17:27:48.453
109, 18.28, 259.30, -307.19, 8.52, 0.000, 0.000, 0.000, 17:27:48.467
110, 11.23, 279.31, -224.54, 10.10, 0.000, 0.000, 0.000, 17:27:48.468
111, 8.42, 260.20, -119.91, 13.68, 0.000, 0.000, 0.000, 17:27:48.482
112, 23.46, 255.18, -254.21, 12.05, 0.000, 0.000, 0.000, 17:27:48.483
113, 26.01, 279.64, -275.87, 9.49, 0.000, 0.000, 0.000, 17:27:48.483
114, 12.61, 267.66, -127.55, 9.48, 0.000, 0.000, 0.000, 17:27:48.483
115, 33.16, 250.53, -204.55, 6.57, 0.000, 0.000, 0.000, 17:27:48.497
116, 16.36, 271.15, -309.18, 10.42, 0.000, 0.000, 0.000, 17:27:48.498
117, 20.84, 283.40, -162.22, 7.66, 0.000, 0.000, 0.000, 17:27:48.513
118, 19.41, 258.28, -144.33, 8.71, 0.000, 0.000, 0.000, 17:27:48.513
119, 33.29, 266.57, -301.05, 8.97, 0.000, 0.000, 0.000, 17:27:48.513
120, 17.29, 273.08, -223.09, 10.62, 0.000, 0.000, 0.000, 17:27:48.513
121, 30.58, 259.52, -115.97, 8.12, 0.000, 0.000, 0.000, 17:27:48.527
122, 34.75, 253.83, -263.40, 8.56, 0.000, 0.000, 0.000, 17:27:48.528
123, 28.45, 279.06, -271.56, 11.09, 0.000, 0.000, 0.000, 17:27:48.543
124, 32.00, 264.51, -124.60, 11.82, 0.000, 0.000, 0.000, 17:27:48.543
125, 35.42, 247.99, -204.45, 11.79, 0.000, 0.000, 0.000, 17:27:48.543
126, 33.59, 271.55, -306.02, 8.27, 0.000, 0.000, 0.000, 17:27:48.544
127, 40.57, 269.94, -161.83, 11.04, 0.000, 0.000, 0.000, 17:27:48.558
128, 33.27, 250.05, -146.59, 6.01, 0.000, 0.000, 0.000, 17:27:48.558
129, 39.91, 265.24, -293.88, 8.47, 0.000, 0.000, 0.000, 17:27:48.572
130, 49.70, 282.77, -210.16, 11.94, 0.000, 0.000, 0.000, 17:27:48.573
131, 50.93, 256.82, -122.65, 12.39, 0.000, 0.000, 0.000, 17:27:48.573
132, 42.82, 251.79, -259.91, 11.35, 0.000, 0.000, 0.000, 17:27:48.573
133, 45.79, 263.57, -281.00, 13.53, 0.000, 0.000, 0.000, 17:27:48.588
134, 29.58, 253.16, -126.11, 11.50, 0.000, 0.000, 0.000, 17:27:48.588
135, 39.68, 242.15, -199.29, 9.39, 0.000, 0.000, 0.000, 17:27:48.603
136, 37.71, 268.75, -305.72, 8.63, 0.000, 0.000, 0.000, 17:27:48.603
137, 9.61, 278.36, -155.34, 12.95, 0.000, 0.000, 0.000, 17:27:48.603
138, 13.25, 248.27, -152.47, 13.08, 0.000, 0.000, 0.000, 17:27:48.603
139, 6.30, 263.53, -303.65, 4.90, 0.000, 0.000, 0.000, 17:27:48.617
140, -29.42, 276.80, -238.22, 6.81, 0.000, 0.000, 0.000, 17:27:48.618
141, -26.53, 258.68, -132.76, 9.98, 0.000, 0.000, 0.000, 17:27:48.632
142, -33.20, 259.78, -281.52, 11.05, 0.000, 0.000, 0.000, 17:27:48.632
143, -51.32, 283.91, -284.69, 10.89, 0.000, 0.000, 0.000, 17:27:48.633
144, -56.52, 272.62, -140.36, 11.23, 0.000, 0.000, 0.000, 17:27:48.633
145, -47.62, 255.30, -229.45, 7.65, 0.000, 0.000, 0.000, 17:27:48.647
146, -39.83, 274.70, -324.17, 7.69, 0.000, 0.000, 0.000, 17:27:48.648
147, -43.40, 280.28, -183.55, 10.20, 0.000, 0.000, 0.000, 17:27:48.662
148, -47.25, 261.57, -155.68, 12.56, 0.000, 0.000, 0.000, 17:27:48.662
149, -38.89, 264.33, -320.17, 12.28, 0.000, 0.000, 0.000, 17:27:48.663
150, -7.76, 280.96, -240.42, 6.78, 0.000, 0.000, 0.000, 17:27:48.663
151, -17.24, 267.43, -126.74, 11.00, 0.000, 0.000, 0.000, 17:27:48.677
152, -2.37, 270.12, -269.56, 10.07, 0.000, 0.000, 0.000, 17:27:48.678
153, 2.95, 285.31, -287.99, 10.74, 0.000, 0.000, 0.000, 17:27:48.692
154, -12.38, 275.08, -129.08, 11.65, 0.000, 0.000, 0.000, 17:27:48.693
155, 7.26, 259.72, -209.21, 9.68, 0.000, 0.000, 0.000, 17:27:48.693
156, 1.94, 277.12, -324.38, 8.99, 0.000, 0.000, 0.000, 17:27:48.694
157, 4.10, 278.79, -157.91, 12.09, 0.000, 0.000, 0.000, 17:27:48.708
158, 11.86, 258.84, -147.66, 6.81, 0.000, 0.000, 0.000, 17:27:48.708
159, 16.64, 272.61, -305.94, 9.68, 0.000, 0.000, 0.000, 17:27:48.723
160, 5.54, 278.62, -228.16, 12.92, 0.000, 0.000, 0.000, 17:27:48.723
161, 14.19, 264.75, -116.36, 9.08, 0.000, 0.000, 0.000, 17:27:48.723
162, 23.52, 257.31, -267.97, 9.20, 0.000, 0.000, 0.000, 17:27:48.723
163, 5.98, 282.11, -284.37, 8.42, 0.000, 0.000, 0.000, 17:27:48.738
164, 10.12, 270.45, -122.90, 6.89, 0.000, 0.000, 0.000, 17:27:48.738
165, 8.87, 264.82, -192.22, 7.18, 0.000, 0.000, 0.000, 17:27:48.752
166, 14.80, 285.01, -303.11, 4.20, 0.000, 0.000, 0.000, 17:27:48.753
167, 11.93, 284.06, -165.26, 10.16, 0.000, 0.000, 0.000, 17:27:48.753
168, 15.08, 261.53, -142.66, 9.74, 0.000, 0.000, 0.000, 17:27:48.753
169, 17.48, 263.20, -297.54, 10.75, 0.000, 0.000, 0.000, 17:27:48.767
170, 5.81, 281.75, -230.28, 7.48, 0.000, 0.000, 0.000, 17:27:48.767
171, 13.97, 268.03, -113.63, 13.79, 0.000, 0.000, 0.000, 17:27:48.782
172, 6.49, 259.20, -259.83, 10.65, 0.000, 0.000, 0.000, 17:27:48.783
173, 32.10, 284.89, -272.95, 9.05, 0.000, 0.000, 0.000, 17:27:48.783
174, 7.25, 268.24, -130.81, 8.58, 0.000, 0.000, 0.000, 17:27:48.783
175, 14.49, 244.47, -198.78, 10.11, 0.000, 0.000, 0.000, 17:27:48.797
176, 8.78, 269.13, -303.58, 11.06, 0.000, 0.000, 0.000, 17:27:48.798
177, 3.36, 273.28, -172.46, 11.60, 0.000, 0.000, 0.000, 17:27:48.812
178, 20.43, 248.24, -152.76, 10.51, 0.000, 0.000, 0.000, 17:27:48.813
179, 19.49, 261.12, -304.39, 11.83, 0.000, 0.000, 0.000, 17:27:48.813
180, 0.04, 279.20, -229.55, 4.87, 0.000, 0.000, 0.000, 17:27:48.813
181, 8.67, 261.98, -120.69, 11.47, 0.000, 0.000, 0.000, 17:27:48.827
182, 12.99, 254.36, -260.06, 10.65, 0.000, 0.000, 0.000, 17:27:48.828
183, 25.00, 281.89, -276.91, 15.08, 0.000, 0.000, 0.000, 17:27:48.842
184, 3.80, 275.74, -123.06, 13.65, 0.000, 0.000, 0.000, 17:27:48.842
185, 8.98, 261.48, -198.40, 8.08, 0.000, 0.000, 0.000, 17:27:48.843
186, 23.78, 282.32, -313.58, 10.35, 0.000, 0.000, 0.000, 17:27:48.843
187, -2.37, 285.30, -159.94, 12.47, 0.000, 0.000, 0.000, 17:27:48.857
188, 18.13, 249.39, -148.44, 8.21, 0.000, 0.000, 0.000, 17:27:48.858
189, 13.32, 264.54, -305.53, 12.93, 0.000, 0.000, 0.000, 17:27:48.873
190, 15.23, 284.00, -224.68, 10.68, 0.000, 0.000, 0.000, 17:27:48.873
191, -8.63, 264.13, -117.26, 11.75, 0.000, 0.000, 0.000, 17:27:48.873
192, 29.00, 253.46, -271.98, 6.57, 0.000, 0.000, 0.000, 17:27:48.873
193, 10.21, 277.18, -290.63, 6.51, 0.000, 0.000, 0.000, 17:27:48.887
194, 8.97, 269.45, -123.33, 7.80, 0.000, 0.000, 0.000, 17:27:48.888
195, 15.56, 244.04, -203.42, 11.89, 0.000, 0.000, 0.000, 17:27:48.903
196, 6.80, 265.31, -315.81, 10.20, 0.000, 0.000, 0.000, 17:27:48.903
197, 16.17, 274.66, -175.50, 8.01, 0.000, 0.000, 0.000, 17:27:48.903
198, 3.78, 252.34, -149.53, 13.21, 0.000, 0.000, 0.000, 17:27:48.904
199, 8.09, 260.29, -304.32, 9.82, 0.000, 0.000, 0.000, 17:27:48.918
200, 3.05, 284.67, -219.90, 7.47, 0.000, 0.000, 0.000, 17:27:48.918
0, 3.09, 260.79, -120.27, 10.14, 0.000, 0.000, 0.000, 17:27:48.918
1, 13.58, 259.51, -264.76, 12.41, 0.000, 0.000, 0.000, 17:27:48.932
2, 15.50, 277.69, -278.69, 6.27, 0.000, 0.000, 0.000, 17:27:48.933
3, 8.85, 270.80, -131.36, 10.31, 0.000, 0.000, 0.000, 17:27:48.947
4, 18.26, 261.13, -193.93, 12.06, 0.000, 0.000, 0.000, 17:27:48.947
5, 17.31, 280.59, -303.34, 11.32, 0.000, 0.000, 0.000, 17:27:48.948
6, 6.78, 292.51, -162.31, 11.50, 0.000, 0.000, 0.000, 17:27:48.948
7, 20.01, 266.18, -148.76, 7.52, 0.000, 0.000, 0.000, 17:27:48.962
8, 27.25, 274.91, -302.31, 7.60, 0.000, 0.000, 0.000, 17:27:48.963
9, 2.89, 292.34, -234.16, 8.44, 0.000, 0.000, 0.000, 17:27:48.977
10, 15.74, 268.17, -121.45, 6.69, 0.000, 0.000, 0.000, 17:27:48.977
11, 5.47, 257.96, -257.21, 10.95, 0.000, 0.000, 0.000, 17:27:48.977
12, 22.12, 283.33, -288.48, 9.94, 0.000, 0.000, 0.000, 17:27:48.978
13, -5.62, 269.18, -134.60, 5.93, 0.000, 0.000, 0.000, 17:27:48.992
14, -5.42, 258.33, -198.24, 8.95, 0.000, 0.000, 0.000, 17:27:48.993
15, 19.05, 274.06, -312.86, 12.99, 0.000, 0.000, 0.000, 17:27:49.008
16, 1.32, 278.79, -169.23, 10.57, 0.000, 0.000, 0.000, 17:27:49.008
17, 11.35, 253.79, -149.47, 11.61, 0.000, 0.000, 0.000, 17:27:49.008
18, 16.12, 257.59, -312.97, 11.16, 0.000, 0.000, 0.000, 17:27:49.009
19, 8.77, 279.13, -233.74, 5.90, 0.000, 0.000, 0.000, 17:27:49.022
20, 9.48, 262.89, -125.49, 10.10, 0.000, 0.000, 0.000, 17:27:49.022
21, 12.74, 254.64, -254.92, 11.74, 0.000, 0.000, 0.000, 17:27:49.037
22, -0.17, 274.76, -290.87, 8.93, 0.000, 0.000, 0.000, 17:27:49.038
23, -4.96, 272.17, -122.20, 13.45, 0.000, 0.000, 0.000, 17:27:49.038
24, 10.36, 255.29, -191.73, 12.93, 0.000, 0.000, 0.000, 17:27:49.038
25, 4.28, 271.62, -304.61, 7.73, 0.000, 0.000, 0.000, 17:27:49.052
26, 24.22, 289.82, -144.33, 8.83, 0.000, 0.000, 0.000, 17:27:49.052
27, 128.70, 261.99, -121.27, 9.38, 0.000, 0.000, 0.000, 17:27:49.068
28, 217.32, 263.41, -259.22, 8.25, 0.000, 0.000, 0.000, 17:27:49.068
29, 236.32, 276.91, -176.48, 11.07, 0.000, 0.000, 0.000, 17:27:49.068
30, 231.32, 252.79, -84.31, 9.04, 0.000, 0.000, 0.000, 17:27:49.068
31, 77.18, 243.16, -252.92, 5.39, 0.000, 0.000, 0.000, 17:27:49.082
32, -128.19, 269.07, -319.89, 14.51, 0.000, 0.000, 0.000, 17:27:49.082
33, -255.06, 272.07, -188.94, 13.68, 0.000, 0.000, 0.000, 17:27:49.098
34, -131.05, 263.88, -241.89, 9.12, 0.000, 0.000, 0.000, 17:27:49.098
35, -27.23, 286.54, -338.64, 17.15, 0.000, 0.000, 0.000, 17:27:49.098
36, -20.54, 290.62, -174.53, 5.47, 0.000, 0.000, 0.000, 17:27:49.098
37, -21.33, 256.38, -138.73, 10.19, 0.000, 0.000, 0.000, 17:27:49.112
38, -10.88, 251.97, -300.03, 11.83, 0.000, 0.000, 0.000, 17:27:49.113
39, -34.58, 276.33, -225.54, 13.09, 0.000, 0.000, 0.000, 17:27:49.128
40, -16.32, 265.07, -117.40, 7.33, 0.000, 0.000, 0.000, 17:27:49.128
41, 14.10, 261.69, -250.83, 5.56, 0.000, 0.000, 0.000, 17:27:49.128
42, -1.87, 283.64, -275.58, 6.48, 0.000, 0.000, 0.000, 17:27:49.128
43, -3.70, 276.04, -125.60, 9.17, 0.000, 0.000, 0.000, 17:27:49.143
44, 17.61, 254.16, -198.77, 8.39, 0.000, 0.000, 0.000, 17:27:49.143
45, 14.43, 274.40, -315.52, 11.10, 0.000, 0.000, 0.000, 17:27:49.158
46, 2.70, 283.87, -166.10, 9.78, 0.000, 0.000, 0.000, 17:27:49.158
47, 20.05, 266.78, -136.48, 10.10, 0.000, 0.000, 0.000, 17:27:49.159
48, 25.57, 273.90, -293.57, 7.97, 0.000, 0.000, 0.000, 17:27:49.159
49, 14.08, 290.66, -228.11, 6.99, 0.000, 0.000, 0.000, 17:27:49.173
50, 10.94, 264.58, -110.94, 9.13, 0.000, 0.000, 0.000, 17:27:49.173
51, 24.46, 254.43, -253.53, 11.10, 0.000, 0.000, 0.000, 17:27:49.187
52, 19.02, 281.62, -280.86, 10.89, 0.000, 0.000, 0.000, 17:27:49.188
53, 11.64, 267.27, -130.76, 11.93, 0.000, 0.000, 0.000, 17:27:49.188
54, 26.52, 240.86, -202.58, 12.75, 0.000, 0.000, 0.000, 17:27:49.188
55, 28.91, 264.80, -309.50, 13.10, 0.000, 0.000, 0.000, 17:27:49.202
56, 16.83, 272.70, -176.23, 9.95, 0.000, 0.000, 0.000, 17:27:49.203
57, 37.80, 249.42, -141.69, 9.71, 0.000, 0.000, 0.000, 17:27:49.217
58, 30.21, 258.57, -301.45, 11.83, 0.000, 0.000, 0.000, 17:27:49.218
59, 18.25, 267.95, -237.99, 7.81, 0.000, 0.000, 0.000, 17:27:49.218
60, 27.60, 250.42, -110.70, 10.68, 0.000, 0.000, 0.000, 17:27:49.218
61, 30.95, 245.56, -254.84, 12.98, 0.000, 0.000, 0.000, 17:27:49.233
62, 37.91, 275.51, -279.01, 5.99, 0.000, 0.000, 0.000, 17:27:49.233
63, 46.08, 268.82, -126.72, 8.72, 0.000, 0.000, 0.000, 17:27:49.247
64, 32.56, 245.80, -185.98, 6.66, 0.000, 0.000, 0.000, 17:27:49.248
65, 39.14, 262.81, -313.80, 12.90, 0.000, 0.000, 0.000, 17:27:49.248
66, 48.80, 277.26, -160.71, 11.21, 0.000, 0.000, 0.000, 17:27:49.248
67, 40.18, 249.78, -136.05, 14.77, 0.000, 0.000, 0.000, 17:27:49.262
68, 46.26, 262.90, -293.68, 9.49, 0.000, 0.000, 0.000, 17:27:49.262
69, 44.50, 289.28, -223.26, 11.49, 0.000, 0.000, 0.000, 17:27:49.277
70, 32.06, 269.14, -105.83, 8.08, 0.000, 0.000, 0.000, 17:27:49.278
71, 46.77, 252.89, -249.69, 10.53, 0.000, 0.000, 0.000, 17:27:49.278
72, 39.47, 271.54, -285.83, 10.57, 0.000, 0.000, 0.000, 17:27:49.278
73, 28.47, 264.35, -129.75, 11.65, 0.000, 0.000, 0.000, 17:27:49.292
74, 14.12, 242.69, -197.78, 10.11, 0.000, 0.000, 0.000, 17:27:49.292
75, 2.51, 261.76, -317.60, 12.00, 0.000, 0.000, 0.000, 17:27:49.308
76, -21.17, 266.74, -186.56, 14.11, 0.000, 0.000, 0.000, 17:27:49.308
77, -21.12, 242.12, -149.25, 9.45, 0.000, 0.000, 0.000, 17:27:49.308
78, -30.33, 254.46, -312.80, 8.44, 0.000, 0.000, 0.000, 17:27:49.308
79, -39.03, 280.14, -250.14, 10.59, 0.000, 0.000, 0.000, 17:27:49.337
80, -44.07, 260.23, -132.90, 6.64, 0.000, 0.000, 0.000, 17:27:49.338
81, -40.49, 246.77, -271.23, 10.14, 0.000, 0.000, 0.000, 17:27:49.338
82, -53.33, 284.80, -298.96, 10.71, 0.000, 0.000, 0.000, 17:27:49.338
83, -53.43, 274.52, -143.22, 10.80, 0.000, 0.000, 0.000, 17:27:49.338
84, -35.99, 269.00, -207.46, 10.17, 0.000, 0.000, 0.000, 17:27:49.339
85, -27.68, 285.96, -313.58, 8.94, 0.000, 0.000, 0.000, 17:27:49.353
86, -36.76, 286.01, -180.02, 11.83, 0.000, 0.000, 0.000, 17:27:49.353
87, -12.24, 269.84, -148.83, 6.59, 0.000, 0.000, 0.000, 17:27:49.367
88, -7.28, 271.66, -305.82, 8.95, 0.000, 0.000, 0.000, 17:27:49.367
89, -18.26, 291.00, -238.99, 9.26, 0.000, 0.000, 0.000, 17:27:49.368
90, -3.26, 275.80, -124.02, 12.57, 0.000, 0.000, 0.000, 17:27:49.369
91, 9.84, 260.21, -250.24, 11.97, 0.000, 0.000, 0.000, 17:27:49.383
92, 10.73, 279.72, -299.00, 4.87, 0.000, 0.000, 0.000, 17:27:49.383
93, -4.57, 285.33, -132.67, 11.20, 0.000, 0.000, 0.000, 17:27:49.397
94, 15.19, 255.15, -192.90, 9.13, 0.000, 0.000, 0.000, 17:27:49.398
95, 10.12, 272.92, -308.31, 5.32, 0.000, 0.000, 0.000, 17:27:49.398
96, 9.89, 270.35, -188.78, 7.28, 0.000, 0.000, 0.000, 17:27:49.399
97, 7.03, 250.81, -150.25, 9.88, 0.000, 0.000, 0.000, 17:27:49.413
98, 20.98, 254.64, -303.06, 4.94, 0.000, 0.000, 0.000, 17:27:49.413
99, 1.57, 273.16, -243.13, 15.59, 0.000, 0.000, 0.000, 17:27:49.427
100, 8.41, 264.41, -117.79, 9.14, 0.000, 0.000, 0.000, 17:27:49.428
101, 15.28, 250.95, -258.34, 9.22, 0.000, 0.000, 0.000, 17:27:49.428
102, 16.88, 274.30, -293.02, 6.67, 0.000, 0.000, 0.000, 17:27:49.428
103, 13.72, 274.98, -128.55, 11.79, 0.000, 0.000, 0.000, 17:27:49.442
104, 15.16, 263.21, -186.69, 6.77, 0.000, 0.000, 0.000, 17:27:49.442
105, 7.82, 278.71, -305.87, 8.47, 0.000, 0.000, 0.000, 17:27:49.457
106, 5.38, 283.92, -190.99, 10.17, 0.000, 0.000, 0.000, 17:27:49.458
107, 17.34, 263.03, -119.22, 11.44, 0.000, 0.000, 0.000, 17:27:49.458
108, 13.23, 262.04, -305.19, 11.05, 0.000, 0.000, 0.000, 17:27:49.458
109, 7.67, 281.82, -241.69, 8.48, 0.000, 0.000, 0.000, 17:27:49.472
110, 12.88, 268.00, -112.83, 9.38, 0.000, 0.000, 0.000, 17:27:49.472
111, 24.80, 261.03, -248.08, 11.40, 0.000, 0.000, 0.000, 17:27:49.487
112, 7.29, 279.00, -294.59, 10.82, 0.000, 0.000, 0.000, 17:27:49.488
113, 5.69, 268.36, -135.65, 10.61, 0.000, 0.000, 0.000, 17:27:49.488
114, 9.13, 248.10, -188.95, 9.85, 0.000, 0.000, 0.000, 17:27:49.488
115, 15.86, 267.47, -314.00, 9.71, 0.000, 0.000, 0.000, 17:27:49.503
116, 10.32, 277.75, -171.98, 7.48, 0.000, 0.000, 0.000, 17:27:49.503
117, 18.29, 251.35, -140.10, 7.10, 0.000, 0.000, 0.000, 17:27:49.517
118, 14.10, 257.09, -292.77, 9.15, 0.000, 0.000, 0.000, 17:27:49.517
119, 6.67, 281.81, -245.70, 10.78, 0.000, 0.000, 0.000, 17:27:49.518
120, 0.66, 260.10, -119.01, 12.57, 0.000, 0.000, 0.000, 17:27:49.518
121, 31.01, 251.46, -249.31, 12.53, 0.000, 0.000, 0.000, 17:27:49.532
122, 5.07, 281.13, -291.34, 7.22, 0.000, 0.000, 0.000, 17:27:49.533
123, 10.00, 273.13, -135.80, 9.68, 0.000, 0.000, 0.000, 17:27:49.547
124, 11.70, 258.07, -184.74, 10.29, 0.000, 0.000, 0.000, 17:27:49.548
125, 19.65, 275.81, -322.82, 12.65, 0.000, 0.000, 0.000, 17:27:49.548
126, 6.39, 287.50, -180.71, 6.98, 0.000, 0.000, 0.000, 17:27:49.548
127, -3.31, 255.05, -139.64, 10.55, 0.000, 0.000, 0.000, 17:27:49.577
128, 28.75, 257.68, -301.07, 10.10, 0.000, 0.000, 0.000, 17:27:49.578
129, 10.03, 273.68, -244.36, 6.68, 0.000, 0.000, 0.000, 17:27:49.578
130, 12.64, 270.27, -115.95, 10.19, 0.000, 0.000, 0.000, 17:27:49.578
