%OpenBCI Raw EEG Data
%
%Sample Rate = 200.0 Hz
%First Column = SampleIndex
%Last Column = Timestamp 
%Other Columns = EEG data in microvolts followed by Accel Data (in G) interleaved with Aux Data
0, 0.00, 0.00, -307.69, 0.00, 0.000, 0.000, 0.000, 19:27:22.664
1, 0.00, 0.00, 137.29, 0.00, 0.000, 0.000, 0.000, 19:27:22.679
2, 0.00, 0.00, 83.00, 0.00, 0.000, 0.000, 0.000, 19:27:22.679
3, 0.00, 0.00, -484.42, 0.00, 0.000, 0.000, 0.000, 19:27:22.694
4, 0.00, 0.00, -14.17, 0.00, 0.000, 0.000, 0.000, 19:27:22.694
5, 0.00, 0.00, 185.61, 0.00, 0.000, 0.000, 0.000, 19:27:22.694
6, 0.00, 0.00, -316.24, 0.00, 0.000, 0.000, 0.000, 19:27:22.695
7, 0.00, 0.00, -213.77, 0.00, 0.000, 0.000, 0.000, 19:27:22.709
8, 0.00, 0.00, 262.93, 0.00, 0.000, 0.000, 0.000, 19:27:22.709
9, 0.00, 0.00, -158.60, 0.00, 0.000, 0.000, 0.000, 19:27:22.724
10, 0.00, 0.00, -399.44, 0.00, 0.000, 0.000, 0.000, 19:27:22.724
11, 0.00, 0.00, 143.59, 0.00, 0.000, 0.000, 0.000, 19:27:22.739
12, 0.00, 0.00, 61.20, 0.00, 0.000, 0.000, 0.000, 19:27:22.739
13, 0.00, 0.00, -334.44, 0.00, 0.000, 0.000, 0.000, 19:27:22.740
14, 0.00, 0.00, -10.93, 0.00, 0.000, 0.000, 0.000, 19:27:22.740
15, 0.00, 0.00, 244.07, 0.00, 0.000, 0.000, 0.000, 19:27:22.754
16, 0.00, 0.00, -311.11, 0.00, 0.000, 0.000, 0.000, 19:27:22.754
17, 0.00, 0.00, -274.14, 0.00, 0.000, 0.000, 0.000, 19:27:22.755
18, 0.00, 0.00, 291.21, 0.00, 0.000, 0.000, 0.000, 19:27:22.755
19, 0.00, 0.00, -41.68, 0.00, 0.000, 0.000, 0.000, 19:27:22.769
20, 0.00, 0.00, -351.26, 0.00, 0.000, 0.000, 0.000, 19:27:22.769
21, 0.00, 0.00, 259.95, 0.00, 0.000, 0.000, 0.000, 19:27:22.784
22, 0.00, 0.00, 202.63, 0.00, 0.000, 0.000, 0.000, 19:27:22.784
23, 0.00, 0.00, -253.28, 0.00, 0.000, 0.000, 0.000, 19:27:22.785
24, 0.00, 0.00, 308.02, 0.00, 0.000, 0.000, 0.000, 19:27:22.785
25, 0.00, 0.00, 516.41, 0.00, 0.000, 0.000, 0.000, 19:27:22.799
26, 0.00, 0.00, -170.62, 0.00, 0.000, 0.000, 0.000, 19:27:22.799
27, 0.00, 0.00, -98.57, 0.00, 0.000, 0.000, 0.000, 19:27:22.814
28, 0.00, 0.00, 135.52, 0.00, 0.000, 0.000, 0.000, 19:27:22.814
29, 0.00, 0.00, -391.76, 0.00, 0.000, 0.000, 0.000, 19:27:22.815
30, 0.00, 0.00, -561.11, 0.00, 0.000, 0.000, 0.000, 19:27:22.815
31, 0.00, 0.00, -7.54, 0.00, 0.000, 0.000, 0.000, 19:27:22.829
32, 0.00, 0.00, 121.10, 0.00, 0.000, 0.000, 0.000, 19:27:22.829
33, 0.00, 0.00, -439.04, 0.00, 0.000, 0.000, 0.000, 19:27:22.844
34, 0.00, 0.00, -87.98, 0.00, 0.000, 0.000, 0.000, 19:27:22.844
35, 0.00, 0.00, 221.16, 0.00, 0.000, 0.000, 0.000, 19:27:22.845
36, 0.00, 0.00, -291.94, 0.00, 0.000, 0.000, 0.000, 19:27:22.845
37, 0.00, 0.00, -316.73, 0.00, 0.000, 0.000, 0.000, 19:27:22.859
38, 0.00, 0.00, 252.14, 0.00, 0.000, 0.000, 0.000, 19:27:22.859
39, 0.00, 0.00, -78.02, 0.00, 0.000, 0.000, 0.000, 19:27:22.874
40, 0.00, 0.00, -426.02, 0.00, 0.000, 0.000, 0.000, 19:27:22.874
41, 0.00, 0.00, 167.06, 0.00, 0.000, 0.000, 0.000, 19:27:22.875
42, 0.00, 0.00, 141.31, 0.00, 0.000, 0.000, 0.000, 19:27:22.875
43, 0.00, 0.00, -440.04, 0.00, 0.000, 0.000, 0.000, 19:27:22.889
44, 0.00, 0.00, -92.11, 0.00, 0.000, 0.000, 0.000, 19:27:22.889
45, 0.00, 0.00, 270.52, 0.00, 0.000, 0.000, 0.000, 19:27:22.904
46, 0.00, 0.00, -317.74, 0.00, 0.000, 0.000, 0.000, 19:27:22.904
47, 0.00, 0.00, -234.01, 0.00, 0.000, 0.000, 0.000, 19:27:22.904
48, 0.00, 0.00, 280.18, 0.00, 0.000, 0.000, 0.000, 19:27:22.905
49, 0.00, 0.00, -65.08, 0.00, 0.000, 0.000, 0.000, 19:27:22.919
50, 0.00, 0.00, -376.65, 0.00, 0.000, 0.000, 0.000, 19:27:22.919
51, 0.00, 0.00, 187.28, 0.00, 0.000, 0.000, 0.000, 19:27:22.934
52, 0.00, 0.00, 107.68, 0.00, 0.000, 0.000, 0.000, 19:27:22.935
53, 0.00, 0.00, -463.97, 0.00, 0.000, 0.000, 0.000, 19:27:22.935
54, 0.00, 0.00, 10.41, 0.00, 0.000, 0.000, 0.000, 19:27:22.935
55, 0.00, 0.00, 257.54, 0.00, 0.000, 0.000, 0.000, 19:27:22.949
56, 0.00, 0.00, -219.65, 0.00, 0.000, 0.000, 0.000, 19:27:22.949
57, 0.00, 0.00, -153.52, 0.00, 0.000, 0.000, 0.000, 19:27:22.964
58, 0.00, 0.00, 167.42, 0.00, 0.000, 0.000, 0.000, 19:27:22.964
59, 0.00, 0.00, -79.29, 0.00, 0.000, 0.000, 0.000, 19:27:22.965
60, 0.00, 0.00, -298.47, 0.00, 0.000, 0.000, 0.000, 19:27:22.965
61, 0.00, 0.00, 174.77, 0.00, 0.000, 0.000, 0.000, 19:27:22.979
62, 0.00, 0.00, 106.37, 0.00, 0.000, 0.000, 0.000, 19:27:22.979
63, 0.00, 0.00, -384.03, 0.00, 0.000, 0.000, 0.000, 19:27:22.994
64, 0.00, 0.00, -19.24, 0.00, 0.000, 0.000, 0.000, 19:27:22.994
65, 0.00, 0.00, 314.03, 0.00, 0.000, 0.000, 0.000, 19:27:22.995
66, 0.00, 0.00, -249.26, 0.00, 0.000, 0.000, 0.000, 19:27:22.995
67, 0.00, 0.00, -158.07, 0.00, 0.000, 0.000, 0.000, 19:27:23.010
68, 0.00, 0.00, 252.07, 0.00, 0.000, 0.000, 0.000, 19:27:23.010
69, 0.00, 0.00, -19.93, 0.00, 0.000, 0.000, 0.000, 19:27:23.024
70, 0.00, 0.00, -312.60, 0.00, 0.000, 0.000, 0.000, 19:27:23.024
71, 0.00, 0.00, 192.81, 0.00, 0.000, 0.000, 0.000, 19:27:23.025
72, 0.00, 0.00, 168.60, 0.00, 0.000, 0.000, 0.000, 19:27:23.025
73, 0.00, 0.00, -334.80, 0.00, 0.000, 0.000, 0.000, 19:27:23.039
74, 0.00, 0.00, -19.82, 0.00, 0.000, 0.000, 0.000, 19:27:23.039
75, 0.00, 0.00, 267.84, 0.00, 0.000, 0.000, 0.000, 19:27:23.054
76, 0.00, 0.00, -234.29, 0.00, 0.000, 0.000, 0.000, 19:27:23.054
77, 0.00, 0.00, -231.11, 0.00, 0.000, 0.000, 0.000, 19:27:23.055
78, 0.00, 0.00, 288.44, 0.00, 0.000, 0.000, 0.000, 19:27:23.055
79, 0.00, 0.00, -41.84, 0.00, 0.000, 0.000, 0.000, 19:27:23.069
80, 0.00, 0.00, -310.40, 0.00, 0.000, 0.000, 0.000, 19:27:23.069
81, 0.00, 0.00, 174.14, 0.00, 0.000, 0.000, 0.000, 19:27:23.084
82, 0.00, 0.00, 127.77, 0.00, 0.000, 0.000, 0.000, 19:27:23.085
83, 0.00, 0.00, -460.77, 0.00, 0.000, 0.000, 0.000, 19:27:23.085
84, 0.00, 0.00, -93.91, 0.00, 0.000, 0.000, 0.000, 19:27:23.085
85, 0.00, 0.00, 194.41, 0.00, 0.000, 0.000, 0.000, 19:27:23.099
86, 0.00, 0.00, -298.20, 0.00, 0.000, 0.000, 0.000, 19:27:23.099
87, 0.00, 0.00, -306.71, 0.00, 0.000, 0.000, 0.000, 19:27:23.114
88, 0.00, 0.00, 212.56, 0.00, 0.000, 0.000, 0.000, 19:27:23.114
89, 0.00, 0.00, -99.19, 0.00, 0.000, 0.000, 0.000, 19:27:23.114
90, 0.00, 0.00, -486.54, 0.00, 0.000, 0.000, 0.000, 19:27:23.115
91, 0.00, 0.00, 133.67, 0.00, 0.000, 0.000, 0.000, 19:27:23.129
92, 0.00, 0.00, 64.31, 0.00, 0.000, 0.000, 0.000, 19:27:23.129
93, 0.00, 0.00, -509.42, 0.00, 0.000, 0.000, 0.000, 19:27:23.144
94, 0.00, 0.00, -103.47, 0.00, 0.000, 0.000, 0.000, 19:27:23.144
95, 0.00, 0.00, 239.87, 0.00, 0.000, 0.000, 0.000, 19:27:23.145
96, 0.00, 0.00, -333.66, 0.00, 0.000, 0.000, 0.000, 19:27:23.145
97, 0.00, 0.00, -197.41, 0.00, 0.000, 0.000, 0.000, 19:27:23.159
98, 0.00, 0.00, 209.81, 0.00, 0.000, 0.000, 0.000, 19:27:23.159
99, 0.00, 0.00, -72.08, 0.00, 0.000, 0.000, 0.000, 19:27:23.174
100, 0.00, 0.00, -500.88, 0.00, 0.000, 0.000, 0.000, 19:27:23.174
101, 0.00, 0.00, 152.33, 0.00, 0.000, 0.000, 0.000, 19:27:23.175
102, 0.00, 0.00, 162.91, 0.00, 0.000, 0.000, 0.000, 19:27:23.175
103, 0.00, 0.00, -377.97, 0.00, 0.000, 0.000, 0.000, 19:27:23.189
104, 0.00, 0.00, -50.57, 0.00, 0.000, 0.000, 0.000, 19:27:23.189
105, 0.00, 0.00, 275.61, 0.00, 0.000, 0.000, 0.000, 19:27:23.204
106, 0.00, 0.00, -227.72, 0.00, 0.000, 0.000, 0.000, 19:27:23.204
107, 0.00, 0.00, -316.16, 0.00, 0.000, 0.000, 0.000, 19:27:23.204
108, 0.00, 0.00, 330.35, 0.00, 0.000, 0.000, 0.000, 19:27:23.205
109, 0.00, 0.00, -71.10, 0.00, 0.000, 0.000, 0.000, 19:27:23.219
110, 0.00, 0.00, -395.88, 0.00, 0.000, 0.000, 0.000, 19:27:23.220
111, 0.00, 0.00, 59.78, 0.00, 0.000, 0.000, 0.000, 19:27:23.234
112, 0.00, 0.00, 172.18, 0.00, 0.000, 0.000, 0.000, 19:27:23.234
113, 0.00, 0.00, -393.14, 0.00, 0.000, 0.000, 0.000, 19:27:23.235
114, 0.00, 0.00, -112.08, 0.00, 0.000, 0.000, 0.000, 19:27:23.235
115, 0.00, 0.00, 319.59, 0.00, 0.000, 0.000, 0.000, 19:27:23.249
116, 0.00, 0.00, -290.38, 0.00, 0.000, 0.000, 0.000, 19:27:23.249
117, 0.00, 0.00, -220.18, 0.00, 0.000, 0.000, 0.000, 19:27:23.264
118, 0.00, 0.00, 284.08, 0.00, 0.000, 0.000, 0.000, 19:27:23.264
119, 0.00, 0.00, -67.62, 0.00, 0.000, 0.000, 0.000, 19:27:23.264
120, 0.00, 0.00, -403.38, 0.00, 0.000, 0.000, 0.000, 19:27:23.264
121, 0.00, 0.00, 154.70, 0.00, 0.000, 0.000, 0.000, 19:27:23.279
122, 0.00, 0.00, 96.88, 0.00, 0.000, 0.000, 0.000, 19:27:23.279
123, 0.00, 0.00, -324.64, 0.00, 0.000, 0.000, 0.000, 19:27:23.294
124, 0.00, 0.00, -43.35, 0.00, 0.000, 0.000, 0.000, 19:27:23.294
125, 0.00, 0.00, 209.96, 0.00, 0.000, 0.000, 0.000, 19:27:23.294
126, 0.00, 0.00, -205.40, 0.00, 0.000, 0.000, 0.000, 19:27:23.295
127, 0.00, 0.00, -241.55, 0.00, 0.000, 0.000, 0.000, 19:27:23.309
128, 0.00, 0.00, 207.29, 0.00, 0.000, 0.000, 0.000, 19:27:23.336
129, 0.00, 0.00, -68.20, 0.00, 0.000, 0.000, 0.000, 19:27:23.336
130, 0.00, 0.00, -445.95, 0.00, 0.000, 0.000, 0.000, 19:27:23.336
131, 0.00, 0.00, 110.56, 0.00, 0.000, 0.000, 0.000, 19:27:23.336
132, 0.00, 0.00, 107.13, 0.00, 0.000, 0.000, 0.000, 19:27:23.336
133, 0.00, 0.00, -384.09, 0.00, 0.000, 0.000, 0.000, 19:27:23.339
134, 0.00, 0.00, -24.77, 0.00, 0.000, 0.000, 0.000, 19:27:23.339
135, 0.00, 0.00, 259.56, 0.00, 0.000, 0.000, 0.000, 19:27:23.354
136, 0.00, 0.00, -197.36, 0.00, 0.000, 0.000, 0.000, 19:27:23.354
137, 0.00, 0.00, -293.84, 0.00, 0.000, 0.000, 0.000, 19:27:23.355
138, 0.00, 0.00, 221.44, 0.00, 0.000, 0.000, 0.000, 19:27:23.355
139, 0.00, 0.00, -42.36, 0.00, 0.000, 0.000, 0.000, 19:27:23.369
140, 0.00, 0.00, -433.09, 0.00, 0.000, 0.000, 0.000, 19:27:23.370
141, 0.00, 0.00, 143.44, 0.00, 0.000, 0.000, 0.000, 19:27:23.384
142, 0.00, 0.00, 250.29, 0.00, 0.000, 0.000, 0.000, 19:27:23.384
143, 0.00, 0.00, -470.24, 0.00, 0.000, 0.000, 0.000, 19:27:23.385
144, 0.00, 0.00, -46.96, 0.00, 0.000, 0.000, 0.000, 19:27:23.385
145, 0.00, 0.00, 248.38, 0.00, 0.000, 0.000, 0.000, 19:27:23.399
146, 0.00, 0.00, -279.22, 0.00, 0.000, 0.000, 0.000, 19:27:23.399
147, 0.00, 0.00, -266.01, 0.00, 0.000, 0.000, 0.000, 19:27:23.414
148, 0.00, 0.00, 330.13, 0.00, 0.000, 0.000, 0.000, 19:27:23.414
149, 0.00, 0.00, -77.36, 0.00, 0.000, 0.000, 0.000, 19:27:23.414
150, 0.00, 0.00, -417.99, 0.00, 0.000, 0.000, 0.000, 19:27:23.415
151, 0.00, 0.00, 130.49, 0.00, 0.000, 0.000, 0.000, 19:27:23.429
152, 0.00, 0.00, 180.01, 0.00, 0.000, 0.000, 0.000, 19:27:23.429
153, 0.00, 0.00, -387.05, 0.00, 0.000, 0.000, 0.000, 19:27:23.445
154, 0.00, 0.00, -41.77, 0.00, 0.000, 0.000, 0.000, 19:27:23.445
155, 0.00, 0.00, 387.86, 0.00, 0.000, 0.000, 0.000, 19:27:23.445
156, 0.00, 0.00, -183.45, 0.00, 0.000, 0.000, 0.000, 19:27:23.445
157, 0.00, 0.00, -297.97, 0.00, 0.000, 0.000, 0.000, 19:27:23.459
158, 0.00, 0.00, 275.60, 0.00, 0.000, 0.000, 0.000, 19:27:23.459
159, 0.00, 0.00, -126.63, 0.00, 0.000, 0.000, 0.000, 19:27:23.474
160, 0.00, 0.00, -404.70, 0.00, 0.000, 0.000, 0.000, 19:27:23.474
161, 0.00, 0.00, 161.71, 0.00, 0.000, 0.000, 0.000, 19:27:23.475
162, 0.00, 0.00, 92.51, 0.00, 0.000, 0.000, 0.000, 19:27:23.475
163, 0.00, 0.00, -398.53, 0.00, 0.000, 0.000, 0.000, 19:27:23.489
164, 0.00, 0.00, -149.28, 0.00, 0.000, 0.000, 0.000, 19:27:23.489
165, 0.00, 0.00, 264.76, 0.00, 0.000, 0.000, 0.000, 19:27:23.504
166, 0.00, 0.00, -230.33, 0.00, 0.000, 0.000, 0.000, 19:27:23.504
167, 0.00, 0.00, -266.11, 0.00, 0.000, 0.000, 0.000, 19:27:23.505
168, 0.00, 0.00, 255.07, 0.00, 0.000, 0.000, 0.000, 19:27:23.505
169, 0.00, 0.00, -130.93, 0.00, 0.000, 0.000, 0.000, 19:27:23.519
170, 0.00, 0.00, -420.36, 0.00, 0.000, 0.000, 0.000, 19:27:23.519
171, 0.00, 0.00, 190.77, 0.00, 0.000, 0.000, 0.000, 19:27:23.534
172, 0.00, 0.00, 76.43, 0.00, 0.000, 0.000, 0.000, 19:27:23.534
173, 0.00, 0.00, -387.23, 0.00, 0.000, 0.000, 0.000, 19:27:23.535
174, 0.00, 0.00, -107.95, 0.00, 0.000, 0.000, 0.000, 19:27:23.535
175, 0.00, 0.00, 301.82, 0.00, 0.000, 0.000, 0.000, 19:27:23.549
176, 0.00, 0.00, -234.89, 0.00, 0.000, 0.000, 0.000, 19:27:23.549
177, 0.00, 0.00, -325.04, 0.00, 0.000, 0.000, 0.000, 19:27:23.565
178, 0.00, 0.00, 277.89, 0.00, 0.000, 0.000, 0.000, 19:27:23.565
179, 0.00, 0.00, 23.77, 0.00, 0.000, 0.000, 0.000, 19:27:23.565
180, 0.00, 0.00, -288.16, 0.00, 0.000, 0.000, 0.000, 19:27:23.565
181, 0.00, 0.00, 266.10, 0.00, 0.000, 0.000, 0.000, 19:27:23.579
182, 0.00, 0.00, 426.22, 0.00, 0.000, 0.000, 0.000, 19:27:23.579
183, 0.00, 0.00, -108.48, 0.00, 0.000, 0.000, 0.000, 19:27:23.594
184, 0.00, 0.00, 169.55, 0.00, 0.000, 0.000, 0.000, 19:27:23.594
185, 0.00, 0.00, 458.26, 0.00, 0.000, 0.000, 0.000, 19:27:23.595
186, 0.00, 0.00, -145.29, 0.00, 0.000, 0.000, 0.000, 19:27:23.595
187, 0.00, 0.00, -475.55, 0.00, 0.000, 0.000, 0.000, 19:27:23.609
188, 0.00, 0.00, 5.20, 0.00, 0.000, 0.000, 0.000, 19:27:23.609
189, 0.00, 0.00, -167.60, 0.00, 0.000, 0.000, 0.000, 19:27:23.624
190, 0.00, 0.00, -564.09, 0.00, 0.000, 0.000, 0.000, 19:27:23.624
191, 0.00, 0.00, 40.21, 0.00, 0.000, 0.000, 0.000, 19:27:23.625
192, 0.00, 0.00, 107.83, 0.00, 0.000, 0.000, 0.000, 19:27:23.625
193, 0.00, 0.00, -495.35, 0.00, 0.000, 0.000, 0.000, 19:27:23.639
194, 0.00, 0.00, 28.52, 0.00, 0.000, 0.000, 0.000, 19:27:23.639
195, 0.00, 0.00, 142.41, 0.00, 0.000, 0.000, 0.000, 19:27:23.654
196, 0.00, 0.00, -305.48, 0.00, 0.000, 0.000, 0.000, 19:27:23.654
197, 0.00, 0.00, -352.75, 0.00, 0.000, 0.000, 0.000, 19:27:23.654
198, 0.00, 0.00, 174.72, 0.00, 0.000, 0.000, 0.000, 19:27:23.655
199, 0.00, 0.00, -3.27, 0.00, 0.000, 0.000, 0.000, 19:27:23.669
200, 0.00, 0.00, -400.70, 0.00, 0.000, 0.000, 0.000, 19:27:23.669
0, 0.00, 0.00, 146.44, 0.00, 0.000, 0.000, 0.000, 19:27:23.670
1, 0.00, 0.00, 159.05, 0.00, 0.000, 0.000, 0.000, 19:27:23.684
2, 0.00, 0.00, -375.01, 0.00, 0.000, 0.000, 0.000, 19:27:23.684
3, 0.00, 0.00, -129.20, 0.00, 0.000, 0.000, 0.000, 19:27:23.699
4, 0.00, 0.00, 257.86, 0.00, 0.000, 0.000, 0.000, 19:27:23.699
5, 0.00, 0.00, -321.42, 0.00, 0.000, 0.000, 0.000, 19:27:23.700
6, 0.00, 0.00, -275.28, 0.00, 0.000, 0.000, 0.000, 19:27:23.700
7, 0.00, 0.00, 225.16, 0.00, 0.000, 0.000, 0.000, 19:27:23.714
8, 0.00, 0.00, -79.28, 0.00, 0.000, 0.000, 0.000, 19:27:23.714
9, 0.00, 0.00, -406.35, 0.00, 0.000, 0.000, 0.000, 19:27:23.729
10, 0.00, 0.00, 122.18, 0.00, 0.000, 0.000, 0.000, 19:27:23.729
11, 0.00, 0.00, 206.67, 0.00, 0.000, 0.000, 0.000, 19:27:23.729
12, 0.00, 0.00, -365.84, 0.00, 0.000, 0.000, 0.000, 19:27:23.730
13, 0.00, 0.00, -182.99, 0.00, 0.000, 0.000, 0.000, 19:27:23.744
14, 0.00, 0.00, 280.55, 0.00, 0.000, 0.000, 0.000, 19:27:23.744
15, 0.00, 0.00, -243.02, 0.00, 0.000, 0.000, 0.000, 19:27:23.759
16, 0.00, 0.00, -279.17, 0.00, 0.000, 0.000, 0.000, 19:27:23.760
17, 0.00, 0.00, 286.47, 0.00, 0.000, 0.000, 0.000, 19:27:23.760
18, 0.00, 0.00, -34.68, 0.00, 0.000, 0.000, 0.000, 19:27:23.760
19, 0.00, 0.00, -386.95, 0.00, 0.000, 0.000, 0.000, 19:27:23.775
20, 0.00, 0.00, 166.59, 0.00, 0.000, 0.000, 0.000, 19:27:23.775
21, 0.00, 0.00, 174.95, 0.00, 0.000, 0.000, 0.000, 19:27:23.789
22, 0.00, 0.00, -462.34, 0.00, 0.000, 0.000, 0.000, 19:27:23.789
23, 0.00, 0.00, -98.64, 0.00, 0.000, 0.000, 0.000, 19:27:23.790
24, 0.00, 0.00, 491.33, 0.00, 0.000, 0.000, 0.000, 19:27:23.790
25, 0.00, 0.00, -308.95, 0.00, 0.000, 0.000, 0.000, 19:27:23.804
26, 0.00, 0.00, -317.95, 0.00, 0.000, 0.000, 0.000, 19:27:23.804
27, 0.00, 0.00, 450.13, 0.00, 0.000, 0.000, 0.000, 19:27:23.819
28, 0.00, 0.00, 69.74, 0.00, 0.000, 0.000, 0.000, 19:27:23.820
29, 0.00, 0.00, -474.76, 0.00, 0.000, 0.000, 0.000, 19:27:23.820
30, 0.00, 0.00, 208.07, 0.00, 0.000, 0.000, 0.000, 19:27:23.820
31, 0.00, 0.00, 314.83, 0.00, 0.000, 0.000, 0.000, 19:27:23.834
32, 0.00, 0.00, -437.04, 0.00, 0.000, 0.000, 0.000, 19:27:23.834
33, 0.00, 0.00, -13.21, 0.00, 0.000, 0.000, 0.000, 19:27:23.849
34, 0.00, 0.00, 428.40, 0.00, 0.000, 0.000, 0.000, 19:27:23.850
35, 0.00, 0.00, -254.30, 0.00, 0.000, 0.000, 0.000, 19:27:23.850
36, 0.00, 0.00, -429.57, 0.00, 0.000, 0.000, 0.000, 19:27:23.850
37, 0.00, 0.00, 428.28, 0.00, 0.000, 0.000, 0.000, 19:27:23.864
38, 0.00, 0.00, -5.74, 0.00, 0.000, 0.000, 0.000, 19:27:23.864
39, 0.00, 0.00, -574.18, 0.00, 0.000, 0.000, 0.000, 19:27:23.879
40, 0.00, 0.00, 176.01, 0.00, 0.000, 0.000, 0.000, 19:27:23.879
41, 0.00, 0.00, 258.27, 0.00, 0.000, 0.000, 0.000, 19:27:23.880
42, 0.00, 0.00, -505.77, 0.00, 0.000, 0.000, 0.000, 19:27:23.880
43, 0.00, 0.00, -192.10, 0.00, 0.000, 0.000, 0.000, 19:27:23.894
44, 0.00, 0.00, 350.11, 0.00, 0.000, 0.000, 0.000, 19:27:23.894
45, 0.00, 0.00, -302.19, 0.00, 0.000, 0.000, 0.000, 19:27:23.909
46, 0.00, 0.00, -441.05, 0.00, 0.000, 0.000, 0.000, 19:27:23.909
47, 0.00, 0.00, 315.25, 0.00, 0.000, 0.000, 0.000, 19:27:23.910
48, 0.00, 0.00, -8.24, 0.00, 0.000, 0.000, 0.000, 19:27:23.910
49, 0.00, 0.00, -558.34, 0.00, 0.000, 0.000, 0.000, 19:27:23.924
50, 0.00, 0.00, 131.60, 0.00, 0.000, 0.000, 0.000, 19:27:23.924
51, 0.00, 0.00, 309.44, 0.00, 0.000, 0.000, 0.000, 19:27:23.939
52, 0.00, 0.00, -624.36, 0.00, 0.000, 0.000, 0.000, 19:27:23.939
53, 0.00, 0.00, -184.98, 0.00, 0.000, 0.000, 0.000, 19:27:23.939
54, 0.00, 0.00, 377.30, 0.00, 0.000, 0.000, 0.000, 19:27:23.940
55, 0.00, 0.00, -269.49, 0.00, 0.000, 0.000, 0.000, 19:27:23.954
56, 0.00, 0.00, -465.59, 0.00, 0.000, 0.000, 0.000, 19:27:23.954
57, 0.00, 0.00, 397.63, 0.00, 0.000, 0.000, 0.000, 19:27:23.969
58, 0.00, 0.00, -25.26, 0.00, 0.000, 0.000, 0.000, 19:27:23.969
59, 0.00, 0.00, -566.82, 0.00, 0.000, 0.000, 0.000, 19:27:23.969
60, 0.00, 0.00, 165.94, 0.00, 0.000, 0.000, 0.000, 19:27:23.970
61, 0.00, 0.00, 296.97, 0.00, 0.000, 0.000, 0.000, 19:27:23.984
62, 0.00, 0.00, -552.21, 0.00, 0.000, 0.000, 0.000, 19:27:23.985
63, 0.00, 0.00, -125.70, 0.00, 0.000, 0.000, 0.000, 19:27:23.999
64, 0.00, 0.00, 480.84, 0.00, 0.000, 0.000, 0.000, 19:27:23.999
65, 0.00, 0.00, -275.56, 0.00, 0.000, 0.000, 0.000, 19:27:24.000
66, 0.00, 0.00, -464.34, 0.00, 0.000, 0.000, 0.000, 19:27:24.000
67, 0.00, 0.00, 482.79, 0.00, 0.000, 0.000, 0.000, 19:27:24.014
68, 0.00, 0.00, -11.52, 0.00, 0.000, 0.000, 0.000, 19:27:24.014
69, 0.00, 0.00, -590.66, 0.00, 0.000, 0.000, 0.000, 19:27:24.029
70, 0.00, 0.00, 195.66, 0.00, 0.000, 0.000, 0.000, 19:27:24.029
71, 0.00, 0.00, 312.73, 0.00, 0.000, 0.000, 0.000, 19:27:24.029
72, 0.00, 0.00, -596.85, 0.00, 0.000, 0.000, 0.000, 19:27:24.030
73, 0.00, 0.00, -141.93, 0.00, 0.000, 0.000, 0.000, 19:27:24.044
74, 0.00, 0.00, 479.99, 0.00, 0.000, 0.000, 0.000, 19:27:24.044
75, 0.00, 0.00, -339.37, 0.00, 0.000, 0.000, 0.000, 19:27:24.060
76, 0.00, 0.00, -349.66, 0.00, 0.000, 0.000, 0.000, 19:27:24.060
77, 0.00, 0.00, 411.75, 0.00, 0.000, 0.000, 0.000, 19:27:24.060
78, 0.00, 0.00, -1.25, 0.00, 0.000, 0.000, 0.000, 19:27:24.060
79, 0.00, 0.00, -543.51, 0.00, 0.000, 0.000, 0.000, 19:27:24.074
80, 0.00, 0.00, 227.82, 0.00, 0.000, 0.000, 0.000, 19:27:24.074
81, 0.00, 0.00, 276.10, 0.00, 0.000, 0.000, 0.000, 19:27:24.089
82, 0.00, 0.00, -532.55, 0.00, 0.000, 0.000, 0.000, 19:27:24.089
83, 0.00, 0.00, -117.36, 0.00, 0.000, 0.000, 0.000, 19:27:24.090
84, 0.00, 0.00, 424.59, 0.00, 0.000, 0.000, 0.000, 19:27:24.090
85, 0.00, 0.00, -217.41, 0.00, 0.000, 0.000, 0.000, 19:27:24.104
86, 0.00, 0.00, -466.09, 0.00, 0.000, 0.000, 0.000, 19:27:24.105
87, 0.00, 0.00, 435.80, 0.00, 0.000, 0.000, 0.000, 19:27:24.119
88, 0.00, 0.00, -62.59, 0.00, 0.000, 0.000, 0.000, 19:27:24.119
89, 0.00, 0.00, -574.30, 0.00, 0.000, 0.000, 0.000, 19:27:24.120
90, 0.00, 0.00, 200.22, 0.00, 0.000, 0.000, 0.000, 19:27:24.120
91, 0.00, 0.00, 298.46, 0.00, 0.000, 0.000, 0.000, 19:27:24.134
92, 0.00, 0.00, -523.50, 0.00, 0.000, 0.000, 0.000, 19:27:24.135
93, 0.00, 0.00, -108.63, 0.00, 0.000, 0.000, 0.000, 19:27:24.149
94, 0.00, 0.00, 469.75, 0.00, 0.000, 0.000, 0.000, 19:27:24.149
95, 0.00, 0.00, -278.68, 0.00, 0.000, 0.000, 0.000, 19:27:24.149
96, 0.00, 0.00, -340.74, 0.00, 0.000, 0.000, 0.000, 19:27:24.150
97, 0.00, 0.00, 353.88, 0.00, 0.000, 0.000, 0.000, 19:27:24.164
98, 0.00, 0.00, 36.06, 0.00, 0.000, 0.000, 0.000, 19:27:24.164
99, 0.00, 0.00, -592.35, 0.00, 0.000, 0.000, 0.000, 19:27:24.179
100, 0.00, 0.00, 163.54, 0.00, 0.000, 0.000, 0.000, 19:27:24.179
101, 0.00, 0.00, 339.33, 0.00, 0.000, 0.000, 0.000, 19:27:24.180
102, 0.00, 0.00, -486.21, 0.00, 0.000, 0.000, 0.000, 19:27:24.180
103, 0.00, 0.00, -182.60, 0.00, 0.000, 0.000, 0.000, 19:27:24.194
104, 0.00, 0.00, 548.78, 0.00, 0.000, 0.000, 0.000, 19:27:24.194
105, 0.00, 0.00, -229.75, 0.00, 0.000, 0.000, 0.000, 19:27:24.209
106, 0.00, 0.00, -453.97, 0.00, 0.000, 0.000, 0.000, 19:27:24.209
107, 0.00, 0.00, 509.78, 0.00, 0.000, 0.000, 0.000, 19:27:24.209
108, 0.00, 0.00, -6.86, 0.00, 0.000, 0.000, 0.000, 19:27:24.210
109, 0.00, 0.00, -576.49, 0.00, 0.000, 0.000, 0.000, 19:27:24.224
110, 0.00, 0.00, 149.73, 0.00, 0.000, 0.000, 0.000, 19:27:24.224
111, 0.00, 0.00, 317.25, 0.00, 0.000, 0.000, 0.000, 19:27:24.239
112, 0.00, 0.00, -546.64, 0.00, 0.000, 0.000, 0.000, 19:27:24.240
113, 0.00, 0.00, -236.33, 0.00, 0.000, 0.000, 0.000, 19:27:24.240
114, 0.00, 0.00, 492.26, 0.00, 0.000, 0.000, 0.000, 19:27:24.240
115, 0.00, 0.00, -365.67, 0.00, 0.000, 0.000, 0.000, 19:27:24.254
116, 0.00, 0.00, -451.40, 0.00, 0.000, 0.000, 0.000, 19:27:24.255
117, 0.00, 0.00, 363.37, 0.00, 0.000, 0.000, 0.000, 19:27:24.269
118, 0.00, 0.00, 11.11, 0.00, 0.000, 0.000, 0.000, 19:27:24.269
119, 0.00, 0.00, -594.05, 0.00, 0.000, 0.000, 0.000, 19:27:24.270
120, 0.00, 0.00, 155.17, 0.00, 0.000, 0.000, 0.000, 19:27:24.270
121, 0.00, 0.00, 306.99, 0.00, 0.000, 0.000, 0.000, 19:27:24.284
122, 0.00, 0.00, -438.55, 0.00, 0.000, 0.000, 0.000, 19:27:24.284
123, 0.00, 0.00, -259.06, 0.00, 0.000, 0.000, 0.000, 19:27:24.299
124, 0.00, 0.00, 401.43, 0.00, 0.000, 0.000, 0.000, 19:27:24.299
125, 0.00, 0.00, -252.19, 0.00, 0.000, 0.000, 0.000, 19:27:24.300
126, 0.00, 0.00, -483.83, 0.00, 0.000, 0.000, 0.000, 19:27:24.300
127, 0.00, 0.00, 455.05, 0.00, 0.000, 0.000, 0.000, 19:27:24.314
128, 0.00, 0.00, 13.44, 0.00, 0.000, 0.000, 0.000, 19:27:24.314
129, 0.00, 0.00, -615.62, 0.00, 0.000, 0.000, 0.000, 19:27:24.329
130, 0.00, 0.00, 270.57, 0.00, 0.000, 0.000, 0.000, 19:27:24.329
131, 0.00, 0.00, 359.79, 0.00, 0.000, 0.000, 0.000, 19:27:24.329
132, 0.00, 0.00, -339.34, 0.00, 0.000, 0.000, 0.000, 19:27:24.330
133, 0.00, 0.00, 86.97, 0.00, 0.000, 0.000, 0.000, 19:27:24.344
134, 0.00, 0.00, 681.79, 0.00, 0.000, 0.000, 0.000, 19:27:24.344
135, 0.00, 0.00, -101.64, 0.00, 0.000, 0.000, 0.000, 19:27:24.359
136, 0.00, 0.00, -248.78, 0.00, 0.000, 0.000, 0.000, 19:27:24.359
137, 0.00, 0.00, 366.55, 0.00, 0.000, 0.000, 0.000, 19:27:24.360
138, 0.00, 0.00, -232.83, 0.00, 0.000, 0.000, 0.000, 19:27:24.360
139, 0.00, 0.00, -813.13, 0.00, 0.000, 0.000, 0.000, 19:27:24.374
140, 0.00, 0.00, 129.39, 0.00, 0.000, 0.000, 0.000, 19:27:24.374
141, 0.00, 0.00, 230.21, 0.00, 0.000, 0.000, 0.000, 19:27:24.390
142, 0.00, 0.00, -627.11, 0.00, 0.000, 0.000, 0.000, 19:27:24.390
143, 0.00, 0.00, -213.31, 0.00, 0.000, 0.000, 0.000, 19:27:24.390
144, 0.00, 0.00, 393.31, 0.00, 0.000, 0.000, 0.000, 19:27:24.390
145, 0.00, 0.00, -354.03, 0.00, 0.000, 0.000, 0.000, 19:27:24.404
146, 0.00, 0.00, -439.66, 0.00, 0.000, 0.000, 0.000, 19:27:24.404
147, 0.00, 0.00, 373.43, 0.00, 0.000, 0.000, 0.000, 19:27:24.419
148, 0.00, 0.00, 26.26, 0.00, 0.000, 0.000, 0.000, 19:27:24.419
149, 0.00, 0.00, -561.68, 0.00, 0.000, 0.000, 0.000, 19:27:24.420
150, 0.00, 0.00, 149.75, 0.00, 0.000, 0.000, 0.000, 19:27:24.420
151, 0.00, 0.00, 286.74, 0.00, 0.000, 0.000, 0.000, 19:27:24.434
152, 0.00, 0.00, -501.87, 0.00, 0.000, 0.000, 0.000, 19:27:24.434
153, 0.00, 0.00, -179.71, 0.00, 0.000, 0.000, 0.000, 19:27:24.449
154, 0.00, 0.00, 513.33, 0.00, 0.000, 0.000, 0.000, 19:27:24.450
155, 0.00, 0.00, -273.15, 0.00, 0.000, 0.000, 0.000, 19:27:24.450
156, 0.00, 0.00, -413.14, 0.00, 0.000, 0.000, 0.000, 19:27:24.450
157, 0.00, 0.00, 486.92, 0.00, 0.000, 0.000, 0.000, 19:27:24.464
158, 0.00, 0.00, 35.33, 0.00, 0.000, 0.000, 0.000, 19:27:24.464
159, 0.00, 0.00, -615.76, 0.00, 0.000, 0.000, 0.000, 19:27:24.479
160, 0.00, 0.00, 203.42, 0.00, 0.000, 0.000, 0.000, 19:27:24.479
161, 0.00, 0.00, 360.24, 0.00, 0.000, 0.000, 0.000, 19:27:24.480
162, 0.00, 0.00, -449.33, 0.00, 0.000, 0.000, 0.000, 19:27:24.480
163, 0.00, 0.00, -117.48, 0.00, 0.000, 0.000, 0.000, 19:27:24.494
164, 0.00, 0.00, 546.26, 0.00, 0.000, 0.000, 0.000, 19:27:24.494
165, 0.00, 0.00, -155.81, 0.00, 0.000, 0.000, 0.000, 19:27:24.509
166, 0.00, 0.00, -434.31, 0.00, 0.000, 0.000, 0.000, 19:27:24.509
167, 0.00, 0.00, 387.10, 0.00, 0.000, 0.000, 0.000, 19:27:24.510
168, 0.00, 0.00, 90.22, 0.00, 0.000, 0.000, 0.000, 19:27:24.510
169, 0.00, 0.00, -493.60, 0.00, 0.000, 0.000, 0.000, 19:27:24.524
170, 0.00, 0.00, 184.55, 0.00, 0.000, 0.000, 0.000, 19:27:24.524
171, 0.00, 0.00, 317.13, 0.00, 0.000, 0.000, 0.000, 19:27:24.540
172, 0.00, 0.00, -490.89, 0.00, 0.000, 0.000, 0.000, 19:27:24.540
173, 0.00, 0.00, -178.64, 0.00, 0.000, 0.000, 0.000, 19:27:24.540
174, 0.00, 0.00, 466.13, 0.00, 0.000, 0.000, 0.000, 19:27:24.540
175, 0.00, 0.00, -257.59, 0.00, 0.000, 0.000, 0.000, 19:27:24.554
176, 0.00, 0.00, -445.41, 0.00, 0.000, 0.000, 0.000, 19:27:24.554
177, 0.00, 0.00, 417.60, 0.00, 0.000, 0.000, 0.000, 19:27:24.569
178, 0.00, 0.00, 67.52, 0.00, 0.000, 0.000, 0.000, 19:27:24.569
179, 0.00, 0.00, -615.88, 0.00, 0.000, 0.000, 0.000, 19:27:24.570
180, 0.00, 0.00, 227.27, 0.00, 0.000, 0.000, 0.000, 19:27:24.570
181, 0.00, 0.00, 305.94, 0.00, 0.000, 0.000, 0.000, 19:27:24.584
182, 0.00, 0.00, -527.02, 0.00, 0.000, 0.000, 0.000, 19:27:24.584
183, 0.00, 0.00, -122.34, 0.00, 0.000, 0.000, 0.000, 19:27:24.599
184, 0.00, 0.00, 492.96, 0.00, 0.000, 0.000, 0.000, 19:27:24.600
185, 0.00, 0.00, -265.94, 0.00, 0.000, 0.000, 0.000, 19:27:24.600
186, 0.00, 0.00, -443.56, 0.00, 0.000, 0.000, 0.000, 19:27:24.600
187, 0.00, 0.00, 390.32, 0.00, 0.000, 0.000, 0.000, 19:27:24.614
188, 0.00, 0.00, 42.05, 0.00, 0.000, 0.000, 0.000, 19:27:24.614
189, 0.00, 0.00, -613.40, 0.00, 0.000, 0.000, 0.000, 19:27:24.629
190, 0.00, 0.00, 134.06, 0.00, 0.000, 0.000, 0.000, 19:27:24.629
191, 0.00, 0.00, 303.65, 0.00, 0.000, 0.000, 0.000, 19:27:24.630
192, 0.00, 0.00, -584.50, 0.00, 0.000, 0.000, 0.000, 19:27:24.630
193, 0.00, 0.00, -228.16, 0.00, 0.000, 0.000, 0.000, 19:27:24.644
194, 0.00, 0.00, 398.79, 0.00, 0.000, 0.000, 0.000, 19:27:24.645
195, 0.00, 0.00, -271.61, 0.00, 0.000, 0.000, 0.000, 19:27:24.659
196, 0.00, 0.00, -551.95, 0.00, 0.000, 0.000, 0.000, 19:27:24.659
197, 0.00, 0.00, 391.71, 0.00, 0.000, 0.000, 0.000, 19:27:24.659
198, 0.00, 0.00, 6.01, 0.00, 0.000, 0.000, 0.000, 19:27:24.660
199, 0.00, 0.00, -735.18, 0.00, 0.000, 0.000, 0.000, 19:27:24.674
200, 0.00, 0.00, 95.67, 0.00, 0.000, 0.000, 0.000, 19:27:24.675
0, 0.00, 0.00, 290.46, 0.00, 0.000, 0.000, 0.000, 19:27:24.675
1, 0.00, 0.00, -607.66, 0.00, 0.000, 0.000, 0.000, 19:27:24.689
2, 0.00, 0.00, -167.90, 0.00, 0.000, 0.000, 0.000, 19:27:24.689
3, 0.00, 0.00, 400.09, 0.00, 0.000, 0.000, 0.000, 19:27:24.704
4, 0.00, 0.00, -313.66, 0.00, 0.000, 0.000, 0.000, 19:27:24.704
5, 0.00, 0.00, -464.96, 0.00, 0.000, 0.000, 0.000, 19:27:24.704
6, 0.00, 0.00, 374.89, 0.00, 0.000, 0.000, 0.000, 19:27:24.705
7, 0.00, 0.00, 29.70, 0.00, 0.000, 0.000, 0.000, 19:27:24.719
8, 0.00, 0.00, -589.70, 0.00, 0.000, 0.000, 0.000, 19:27:24.719
9, 0.00, 0.00, 144.08, 0.00, 0.000, 0.000, 0.000, 19:27:24.734
10, 0.00, 0.00, 368.90, 0.00, 0.000, 0.000, 0.000, 19:27:24.734
11, 0.00, 0.00, -536.27, 0.00, 0.000, 0.000, 0.000, 19:27:24.749
12, 0.00, 0.00, -221.26, 0.00, 0.000, 0.000, 0.000, 19:27:24.749
13, 0.00, 0.00, 543.54, 0.00, 0.000, 0.000, 0.000, 19:27:24.749
14, 0.00, 0.00, -255.73, 0.00, 0.000, 0.000, 0.000, 19:27:24.750
15, 0.00, 0.00, -529.67, 0.00, 0.000, 0.000, 0.000, 19:27:24.773
16, 0.00, 0.00, 356.48, 0.00, 0.000, 0.000, 0.000, 19:27:24.774
17, 0.00, 0.00, 136.91, 0.00, 0.000, 0.000, 0.000, 19:27:24.774
18, 0.00, 0.00, -588.33, 0.00, 0.000, 0.000, 0.000, 19:27:24.774
19, 0.00, 0.00, 102.75, 0.00, 0.000, 0.000, 0.000, 19:27:24.783
20, 0.00, 0.00, 387.09, 0.00, 0.000, 0.000, 0.000, 19:27:24.783
21, 0.00, 0.00, -459.59, 0.00, 0.000, 0.000, 0.000, 19:27:24.794
22, 0.00, 0.00, -167.68, 0.00, 0.000, 0.000, 0.000, 19:27:24.794
23, 0.00, 0.00, 439.01, 0.00, 0.000, 0.000, 0.000, 19:27:24.794
24, 0.00, 0.00, -185.57, 0.00, 0.000, 0.000, 0.000, 19:27:24.800
25, 0.00, 0.00, -507.48, 0.00, 0.000, 0.000, 0.000, 19:27:24.809
26, 0.00, 0.00, 376.46, 0.00, 0.000, 0.000, 0.000, 19:27:24.809
27, 0.00, 0.00, 62.23, 0.00, 0.000, 0.000, 0.000, 19:27:24.824
28, 0.00, 0.00, -649.16, 0.00, 0.000, 0.000, 0.000, 19:27:24.824
29, 0.00, 0.00, 181.84, 0.00, 0.000, 0.000, 0.000, 19:27:24.824
30, 0.00, 0.00, 358.99, 0.00, 0.000, 0.000, 0.000, 19:27:24.825
31, 0.00, 0.00, -502.74, 0.00, 0.000, 0.000, 0.000, 19:27:24.839
32, 0.00, 0.00, -188.63, 0.00, 0.000, 0.000, 0.000, 19:27:24.839
33, 0.00, 0.00, 454.46, 0.00, 0.000, 0.000, 0.000, 19:27:24.855
34, 0.00, 0.00, -241.40, 0.00, 0.000, 0.000, 0.000, 19:27:24.855
35, 0.00, 0.00, -559.29, 0.00, 0.000, 0.000, 0.000, 19:27:24.855
36, 0.00, 0.00, -554.66, 0.00, 0.000, 0.000, 0.000, 19:27:24.855
37, 0.00, 0.00, -862.60, 0.00, 0.000, 0.000, 0.000, 19:27:24.869
38, 0.00, 0.00, -1535.01, 0.00, 0.000, 0.000, 0.000, 19:27:24.869
39, 0.00, 0.00, -861.51, 0.00, 0.000, 0.000, 0.000, 19:27:24.884
40, 0.00, 0.00, -613.84, 0.00, 0.000, 0.000, 0.000, 19:27:24.884
41, 0.00, 0.00, -1517.24, 0.00, 0.000, 0.000, 0.000, 19:27:24.885
42, 0.00, 0.00, -1237.20, 0.00, 0.000, 0.000, 0.000, 19:27:24.885
43, 0.00, 0.00, -464.05, 0.00, 0.000, 0.000, 0.000, 19:27:24.899
44, 0.00, 0.00, -1169.05, 0.00, 0.000, 0.000, 0.000, 19:27:24.899
45, 0.00, 0.00, -1513.26, 0.00, 0.000, 0.000, 0.000, 19:27:24.914
46, 0.00, 0.00, -583.34, 0.00, 0.000, 0.000, 0.000, 19:27:24.914
47, 0.00, 0.00, -872.87, 0.00, 0.000, 0.000, 0.000, 19:27:24.915
48, 0.00, 0.00, -1611.21, 0.00, 0.000, 0.000, 0.000, 19:27:24.915
49, 0.00, 0.00, -857.48, 0.00, 0.000, 0.000, 0.000, 19:27:24.929
50, 0.00, 0.00, -638.10, 0.00, 0.000, 0.000, 0.000, 19:27:24.929
51, 0.00, 0.00, -1453.50, 0.00, 0.000, 0.000, 0.000, 19:27:24.944
52, 0.00, 0.00, -1102.19, 0.00, 0.000, 0.000, 0.000, 19:27:24.944
53, 0.00, 0.00, -507.88, 0.00, 0.000, 0.000, 0.000, 19:27:24.944
54, 0.00, 0.00, -1278.63, 0.00, 0.000, 0.000, 0.000, 19:27:24.945
55, 0.00, 0.00, -1463.90, 0.00, 0.000, 0.000, 0.000, 19:27:24.960
56, 0.00, 0.00, -589.63, 0.00, 0.000, 0.000, 0.000, 19:27:24.960
57, 0.00, 0.00, -894.91, 0.00, 0.000, 0.000, 0.000, 19:27:24.974
58, 0.00, 0.00, -1508.50, 0.00, 0.000, 0.000, 0.000, 19:27:24.974
59, 0.00, 0.00, -852.18, 0.00, 0.000, 0.000, 0.000, 19:27:24.975
60, 0.00, 0.00, -646.90, 0.00, 0.000, 0.000, 0.000, 19:27:24.975
61, 0.00, 0.00, -1446.97, 0.00, 0.000, 0.000, 0.000, 19:27:24.989
62, 0.00, 0.00, -1150.84, 0.00, 0.000, 0.000, 0.000, 19:27:24.989
63, 0.00, 0.00, -471.68, 0.00, 0.000, 0.000, 0.000, 19:27:25.004
64, 0.00, 0.00, -1218.65, 0.00, 0.000, 0.000, 0.000, 19:27:25.005
65, 0.00, 0.00, -1494.61, 0.00, 0.000, 0.000, 0.000, 19:27:25.005
66, 0.00, 0.00, -587.60, 0.00, 0.000, 0.000, 0.000, 19:27:25.005
67, 0.00, 0.00, -954.56, 0.00, 0.000, 0.000, 0.000, 19:27:25.019
68, 0.00, 0.00, -1609.41, 0.00, 0.000, 0.000, 0.000, 19:27:25.019
69, 0.00, 0.00, -894.70, 0.00, 0.000, 0.000, 0.000, 19:27:25.034
70, 0.00, 0.00, -652.30, 0.00, 0.000, 0.000, 0.000, 19:27:25.034
71, 0.00, 0.00, -1521.49, 0.00, 0.000, 0.000, 0.000, 19:27:25.035
72, 0.00, 0.00, -1189.19, 0.00, 0.000, 0.000, 0.000, 19:27:25.035
73, 0.00, 0.00, -486.10, 0.00, 0.000, 0.000, 0.000, 19:27:25.049
74, 0.00, 0.00, -1223.66, 0.00, 0.000, 0.000, 0.000, 19:27:25.049
75, 0.00, 0.00, -1437.02, 0.00, 0.000, 0.000, 0.000, 19:27:25.064
76, 0.00, 0.00, -660.87, 0.00, 0.000, 0.000, 0.000, 19:27:25.065
77, 0.00, 0.00, -877.92, 0.00, 0.000, 0.000, 0.000, 19:27:25.065
78, 0.00, 0.00, -1566.86, 0.00, 0.000, 0.000, 0.000, 19:27:25.065
79, 0.00, 0.00, -881.54, 0.00, 0.000, 0.000, 0.000, 19:27:25.079
80, 0.00, 0.00, -620.21, 0.00, 0.000, 0.000, 0.000, 19:27:25.079
81, 0.00, 0.00, -1428.25, 0.00, 0.000, 0.000, 0.000, 19:27:25.094
82, 0.00, 0.00, -1178.45, 0.00, 0.000, 0.000, 0.000, 19:27:25.094
83, 0.00, 0.00, -514.75, 0.00, 0.000, 0.000, 0.000, 19:27:25.095
84, 0.00, 0.00, -1146.82, 0.00, 0.000, 0.000, 0.000, 19:27:25.095
85, 0.00, 0.00, -1418.64, 0.00, 0.000, 0.000, 0.000, 19:27:25.109
86, 0.00, 0.00, -559.00, 0.00, 0.000, 0.000, 0.000, 19:27:25.109
87, 0.00, 0.00, -792.68, 0.00, 0.000, 0.000, 0.000, 19:27:25.124
88, 0.00, 0.00, -1382.51, 0.00, 0.000, 0.000, 0.000, 19:27:25.124
89, 0.00, 0.00, -520.22, 0.00, 0.000, 0.000, 0.000, 19:27:25.125
90, 0.00, 0.00, -391.80, 0.00, 0.000, 0.000, 0.000, 19:27:25.125
91, 0.00, 0.00, -1260.86, 0.00, 0.000, 0.000, 0.000, 19:27:25.139
92, 0.00, 0.00, -1027.52, 0.00, 0.000, 0.000, 0.000, 19:27:25.139
93, 0.00, 0.00, -492.37, 0.00, 0.000, 0.000, 0.000, 19:27:25.154
94, 0.00, 0.00, -506.87, 0.00, 0.000, 0.000, 0.000, 19:27:25.154
95, 0.00, 0.00, -755.85, 0.00, 0.000, 0.000, 0.000, 19:27:25.155
96, 0.00, 0.00, 208.11, 0.00, 0.000, 0.000, 0.000, 19:27:25.155
97, 0.00, 0.00, 53.62, 0.00, 0.000, 0.000, 0.000, 19:27:25.169
98, 0.00, 0.00, -713.52, 0.00, 0.000, 0.000, 0.000, 19:27:25.169
99, 0.00, 0.00, 49.63, 0.00, 0.000, 0.000, 0.000, 19:27:25.184
100, 0.00, 0.00, 267.65, 0.00, 0.000, 0.000, 0.000, 19:27:25.184
101, 0.00, 0.00, -503.07, 0.00, 0.000, 0.000, 0.000, 19:27:25.185
102, 0.00, 0.00, -279.54, 0.00, 0.000, 0.000, 0.000, 19:27:25.185
103, 0.00, 0.00, 410.70, 0.00, 0.000, 0.000, 0.000, 19:27:25.199
104, 0.00, 0.00, -241.08, 0.00, 0.000, 0.000, 0.000, 19:27:25.199
105, 0.00, 0.00, -560.51, 0.00, 0.000, 0.000, 0.000, 19:27:25.214
106, 0.00, 0.00, 399.97, 0.00, 0.000, 0.000, 0.000, 19:27:25.214
107, 0.00, 0.00, 24.82, 0.00, 0.000, 0.000, 0.000, 19:27:25.214
108, 0.00, 0.00, -549.55, 0.00, 0.000, 0.000, 0.000, 19:27:25.215
109, 0.00, 0.00, 68.40, 0.00, 0.000, 0.000, 0.000, 19:27:25.229
110, 0.00, 0.00, 359.92, 0.00, 0.000, 0.000, 0.000, 19:27:25.229
111, 0.00, 0.00, -450.27, 0.00, 0.000, 0.000, 0.000, 19:27:25.244
112, 0.00, 0.00, -331.55, 0.00, 0.000, 0.000, 0.000, 19:27:25.244
113, 0.00, 0.00, 434.79, 0.00, 0.000, 0.000, 0.000, 19:27:25.245
114, 0.00, 0.00, -174.57, 0.00, 0.000, 0.000, 0.000, 19:27:25.245
115, 0.00, 0.00, -544.67, 0.00, 0.000, 0.000, 0.000, 19:27:25.259
116, 0.00, 0.00, 401.13, 0.00, 0.000, 0.000, 0.000, 19:27:25.259
117, 0.00, 0.00, 62.28, 0.00, 0.000, 0.000, 0.000, 19:27:25.274
118, 0.00, 0.00, -641.54, 0.00, 0.000, 0.000, 0.000, 19:27:25.275
119, 0.00, 0.00, 66.24, 0.00, 0.000, 0.000, 0.000, 19:27:25.275
120, 0.00, 0.00, 382.19, 0.00, 0.000, 0.000, 0.000, 19:27:25.275
121, 0.00, 0.00, -478.26, 0.00, 0.000, 0.000, 0.000, 19:27:25.289
122, 0.00, 0.00, -222.34, 0.00, 0.000, 0.000, 0.000, 19:27:25.289
123, 0.00, 0.00, 499.13, 0.00, 0.000, 0.000, 0.000, 19:27:25.304
124, 0.00, 0.00, -174.74, 0.00, 0.000, 0.000, 0.000, 19:27:25.304
125, 0.00, 0.00, -469.08, 0.00, 0.000, 0.000, 0.000, 19:27:25.304
126, 0.00, 0.00, 386.27, 0.00, 0.000, 0.000, 0.000, 19:27:25.305
127, 0.00, 0.00, 154.84, 0.00, 0.000, 0.000, 0.000, 19:27:25.319
128, 0.00, 0.00, -636.97, 0.00, 0.000, 0.000, 0.000, 19:27:25.319
129, 0.00, 0.00, 128.53, 0.00, 0.000, 0.000, 0.000, 19:27:25.334
130, 0.00, 0.00, 374.73, 0.00, 0.000, 0.000, 0.000, 19:27:25.334
131, 0.00, 0.00, -435.26, 0.00, 0.000, 0.000, 0.000, 19:27:25.349
132, 0.00, 0.00, -187.43, 0.00, 0.000, 0.000, 0.000, 19:27:25.350
133, 0.00, 0.00, 489.51, 0.00, 0.000, 0.000, 0.000, 19:27:25.350
134, 0.00, 0.00, -140.91, 0.00, 0.000, 0.000, 0.000, 19:27:25.350
135, 0.00, 0.00, -409.54, 0.00, 0.000, 0.000, 0.000, 19:27:25.364
136, 0.00, 0.00, 326.94, 0.00, 0.000, 0.000, 0.000, 19:27:25.364
137, 0.00, 0.00, 148.52, 0.00, 0.000, 0.000, 0.000, 19:27:25.364
138, 0.00, 0.00, -565.24, 0.00, 0.000, 0.000, 0.000, 19:27:25.365
139, 0.00, 0.00, 105.07, 0.00, 0.000, 0.000, 0.000, 19:27:25.379
140, 0.00, 0.00, 399.82, 0.00, 0.000, 0.000, 0.000, 19:27:25.379
141, 0.00, 0.00, -426.18, 0.00, 0.000, 0.000, 0.000, 19:27:25.394
142, 0.00, 0.00, -159.99, 0.00, 0.000, 0.000, 0.000, 19:27:25.394
143, 0.00, 0.00, 468.35, 0.00, 0.000, 0.000, 0.000, 19:27:25.394
144, 0.00, 0.00, -178.03, 0.00, 0.000, 0.000, 0.000, 19:27:25.395
145, 0.00, 0.00, -480.04, 0.00, 0.000, 0.000, 0.000, 19:27:25.409
146, 0.00, 0.00, 406.64, 0.00, 0.000, 0.000, 0.000, 19:27:25.409
147, 0.00, 0.00, 144.14, 0.00, 0.000, 0.000, 0.000, 19:27:25.425
148, 0.00, 0.00, -665.07, 0.00, 0.000, 0.000, 0.000, 19:27:25.425
149, 0.00, 0.00, 71.28, 0.00, 0.000, 0.000, 0.000, 19:27:25.425
150, 0.00, 0.00, 326.30, 0.00, 0.000, 0.000, 0.000, 19:27:25.425
151, 0.00, 0.00, -562.73, 0.00, 0.000, 0.000, 0.000, 19:27:25.439
152, 0.00, 0.00, -240.15, 0.00, 0.000, 0.000, 0.000, 19:27:25.439
153, 0.00, 0.00, 391.22, 0.00, 0.000, 0.000, 0.000, 19:27:25.455
154, 0.00, 0.00, -190.19, 0.00, 0.000, 0.000, 0.000, 19:27:25.455
155, 0.00, 0.00, -604.63, 0.00, 0.000, 0.000, 0.000, 19:27:25.455
156, 0.00, 0.00, 312.30, 0.00, 0.000, 0.000, 0.000, 19:27:25.455
157, 0.00, 0.00, 121.40, 0.00, 0.000, 0.000, 0.000, 19:27:25.469
158, 0.00, 0.00, -655.46, 0.00, 0.000, 0.000, 0.000, 19:27:25.469
159, 0.00, 0.00, 56.90, 0.00, 0.000, 0.000, 0.000, 19:27:25.484
160, 0.00, 0.00, 375.05, 0.00, 0.000, 0.000, 0.000, 19:27:25.484
161, 0.00, 0.00, -538.20, 0.00, 0.000, 0.000, 0.000, 19:27:25.484
162, 0.00, 0.00, -297.24, 0.00, 0.000, 0.000, 0.000, 19:27:25.485
163, 0.00, 0.00, 479.31, 0.00, 0.000, 0.000, 0.000, 19:27:25.499
164, 0.00, 0.00, -188.17, 0.00, 0.000, 0.000, 0.000, 19:27:25.499
165, 0.00, 0.00, -554.49, 0.00, 0.000, 0.000, 0.000, 19:27:25.514
166, 0.00, 0.00, 381.06, 0.00, 0.000, 0.000, 0.000, 19:27:25.514
167, 0.00, 0.00, 127.42, 0.00, 0.000, 0.000, 0.000, 19:27:25.529
168, 0.00, 0.00, -608.12, 0.00, 0.000, 0.000, 0.000, 19:27:25.530
169, 0.00, 0.00, 17.50, 0.00, 0.000, 0.000, 0.000, 19:27:25.530
170, 0.00, 0.00, 379.57, 0.00, 0.000, 0.000, 0.000, 19:27:25.530
171, 0.00, 0.00, -447.63, 0.00, 0.000, 0.000, 0.000, 19:27:25.544
172, 0.00, 0.00, -290.33, 0.00, 0.000, 0.000, 0.000, 19:27:25.544
173, 0.00, 0.00, 535.21, 0.00, 0.000, 0.000, 0.000, 19:27:25.559
174, 0.00, 0.00, -195.68, 0.00, 0.000, 0.000, 0.000, 19:27:25.559
175, 0.00, 0.00, -523.62, 0.00, 0.000, 0.000, 0.000, 19:27:25.560
176, 0.00, 0.00, 350.68, 0.00, 0.000, 0.000, 0.000, 19:27:25.560
177, 0.00, 0.00, 178.21, 0.00, 0.000, 0.000, 0.000, 19:27:25.574
178, 0.00, 0.00, -688.19, 0.00, 0.000, 0.000, 0.000, 19:27:25.575
179, 0.00, 0.00, 46.28, 0.00, 0.000, 0.000, 0.000, 19:27:25.575
180, 0.00, 0.00, 385.58, 0.00, 0.000, 0.000, 0.000, 19:27:25.575
181, 0.00, 0.00, -463.21, 0.00, 0.000, 0.000, 0.000, 19:27:25.589
182, 0.00, 0.00, -234.72, 0.00, 0.000, 0.000, 0.000, 19:27:25.589
183, 0.00, 0.00, 500.30, 0.00, 0.000, 0.000, 0.000, 19:27:25.604
184, 0.00, 0.00, -148.62, 0.00, 0.000, 0.000, 0.000, 19:27:25.604
185, 0.00, 0.00, -519.10, 0.00, 0.000, 0.000, 0.000, 19:27:25.604
186, 0.00, 0.00, 307.80, 0.00, 0.000, 0.000, 0.000, 19:27:25.605
187, 0.00, 0.00, 186.38, 0.00, 0.000, 0.000, 0.000, 19:27:25.619
188, 0.00, 0.00, -630.38, 0.00, 0.000, 0.000, 0.000, 19:27:25.619
189, 0.00, 0.00, 50.19, 0.00, 0.000, 0.000, 0.000, 19:27:25.634
190, 0.00, 0.00, 395.38, 0.00, 0.000, 0.000, 0.000, 19:27:25.635
191, 0.00, 0.00, -394.27, 0.00, 0.000, 0.000, 0.000, 19:27:25.635
192, 0.00, 0.00, -263.03, 0.00, 0.000, 0.000, 0.000, 19:27:25.635
193, 0.00, 0.00, 476.68, 0.00, 0.000, 0.000, 0.000, 19:27:25.649
194, 0.00, 0.00, -139.40, 0.00, 0.000, 0.000, 0.000, 19:27:25.649
195, 0.00, 0.00, -553.65, 0.00, 0.000, 0.000, 0.000, 19:27:25.664
196, 0.00, 0.00, 368.21, 0.00, 0.000, 0.000, 0.000, 19:27:25.665
197, 0.00, 0.00, 75.93, 0.00, 0.000, 0.000, 0.000, 19:27:25.665
198, 0.00, 0.00, -607.58, 0.00, 0.000, 0.000, 0.000, 19:27:25.665
199, 0.00, 0.00, 64.46, 0.00, 0.000, 0.000, 0.000, 19:27:25.679
200, 0.00, 0.00, 419.35, 0.00, 0.000, 0.000, 0.000, 19:27:25.679
0, 0.00, 0.00, -454.54, 0.00, 0.000, 0.000, 0.000, 19:27:25.679
1, 0.00, 0.00, -271.18, 0.00, 0.000, 0.000, 0.000, 19:27:25.694
2, 0.00, 0.00, 454.45, 0.00, 0.000, 0.000, 0.000, 19:27:25.694
3, 0.00, 0.00, -159.64, 0.00, 0.000, 0.000, 0.000, 19:27:25.709
4, 0.00, 0.00, -552.72, 0.00, 0.000, 0.000, 0.000, 19:27:25.709
5, 0.00, 0.00, 376.84, 0.00, 0.000, 0.000, 0.000, 19:27:25.710
6, 0.00, 0.00, 127.68, 0.00, 0.000, 0.000, 0.000, 19:27:25.710
7, 0.00, 0.00, -562.19, 0.00, 0.000, 0.000, 0.000, 19:27:25.724
8, 0.00, 0.00, 30.99, 0.00, 0.000, 0.000, 0.000, 19:27:25.724
9, 0.00, 0.00, 434.35, 0.00, 0.000, 0.000, 0.000, 19:27:25.739
10, 0.00, 0.00, -427.35, 0.00, 0.000, 0.000, 0.000, 19:27:25.740
11, 0.00, 0.00, -308.63, 0.00, 0.000, 0.000, 0.000, 19:27:25.740
12, 0.00, 0.00, 490.69, 0.00, 0.000, 0.000, 0.000, 19:27:25.740
13, 0.00, 0.00, -125.04, 0.00, 0.000, 0.000, 0.000, 19:27:25.754
14, 0.00, 0.00, -482.59, 0.00, 0.000, 0.000, 0.000, 19:27:25.754
15, 0.00, 0.00, 380.59, 0.00, 0.000, 0.000, 0.000, 19:27:25.769
16, 0.00, 0.00, 161.59, 0.00, 0.000, 0.000, 0.000, 19:27:25.769
17, 0.00, 0.00, -624.61, 0.00, 0.000, 0.000, 0.000, 19:27:25.770
18, 0.00, 0.00, 59.75, 0.00, 0.000, 0.000, 0.000, 19:27:25.770
19, 0.00, 0.00, 396.78, 0.00, 0.000, 0.000, 0.000, 19:27:25.784
20, 0.00, 0.00, -464.96, 0.00, 0.000, 0.000, 0.000, 19:27:25.784
21, 0.00, 0.00, -338.23, 0.00, 0.000, 0.000, 0.000, 19:27:25.799
22, 0.00, 0.00, 400.66, 0.00, 0.000, 0.000, 0.000, 19:27:25.799
23, 0.00, 0.00, -114.64, 0.00, 0.000, 0.000, 0.000, 19:27:25.800
24, 0.00, 0.00, -634.91, 0.00, 0.000, 0.000, 0.000, 19:27:25.800
25, 0.00, 0.00, -615.72, 0.00, 0.000, 0.000, 0.000, 19:27:25.814
26, 0.00, 0.00, -870.29, 0.00, 0.000, 0.000, 0.000, 19:27:25.814
27, 0.00, 0.00, -1547.31, 0.00, 0.000, 0.000, 0.000, 19:27:25.829
28, 0.00, 0.00, -954.31, 0.00, 0.000, 0.000, 0.000, 19:27:25.829
29, 0.00, 0.00, -584.28, 0.00, 0.000, 0.000, 0.000, 19:27:25.830
30, 0.00, 0.00, -1394.81, 0.00, 0.000, 0.000, 0.000, 19:27:25.830
31, 0.00, 0.00, -1293.93, 0.00, 0.000, 0.000, 0.000, 19:27:25.844
32, 0.00, 0.00, -606.85, 0.00, 0.000, 0.000, 0.000, 19:27:25.844
33, 0.00, 0.00, -1136.26, 0.00, 0.000, 0.000, 0.000, 19:27:25.859
34, 0.00, 0.00, -1495.92, 0.00, 0.000, 0.000, 0.000, 19:27:25.859
35, 0.00, 0.00, -642.20, 0.00, 0.000, 0.000, 0.000, 19:27:25.860
36, 0.00, 0.00, -801.05, 0.00, 0.000, 0.000, 0.000, 19:27:25.860
37, 0.00, 0.00, -1530.75, 0.00, 0.000, 0.000, 0.000, 19:27:25.874
38, 0.00, 0.00, -873.09, 0.00, 0.000, 0.000, 0.000, 19:27:25.874
39, 0.00, 0.00, -535.79, 0.00, 0.000, 0.000, 0.000, 19:27:25.889
40, 0.00, 0.00, -1393.25, 0.00, 0.000, 0.000, 0.000, 19:27:25.889
41, 0.00, 0.00, -1070.54, 0.00, 0.000, 0.000, 0.000, 19:27:25.890
42, 0.00, 0.00, -218.23, 0.00, 0.000, 0.000, 0.000, 19:27:25.890
43, 0.00, 0.00, -882.55, 0.00, 0.000, 0.000, 0.000, 19:27:25.904
44, 0.00, 0.00, -1323.86, 0.00, 0.000, 0.000, 0.000, 19:27:25.904
45, 0.00, 0.00, -483.08, 0.00, 0.000, 0.000, 0.000, 19:27:25.919
46, 0.00, 0.00, -852.60, 0.00, 0.000, 0.000, 0.000, 19:27:25.919
47, 0.00, 0.00, -1762.94, 0.00, 0.000, 0.000, 0.000, 19:27:25.920
48, 0.00, 0.00, -1199.17, 0.00, 0.000, 0.000, 0.000, 19:27:25.920
49, 0.00, 0.00, -718.94, 0.00, 0.000, 0.000, 0.000, 19:27:25.934
50, 0.00, 0.00, -1509.64, 0.00, 0.000, 0.000, 0.000, 19:27:25.934
51, 0.00, 0.00, -1393.46, 0.00, 0.000, 0.000, 0.000, 19:27:25.949
52, 0.00, 0.00, -497.60, 0.00, 0.000, 0.000, 0.000, 19:27:25.949
53, 0.00, 0.00, -1175.76, 0.00, 0.000, 0.000, 0.000, 19:27:25.950
54, 0.00, 0.00, -1580.47, 0.00, 0.000, 0.000, 0.000, 19:27:25.950
55, 0.00, 0.00, -645.99, 0.00, 0.000, 0.000, 0.000, 19:27:25.964
56, 0.00, 0.00, -807.46, 0.00, 0.000, 0.000, 0.000, 19:27:25.964
57, 0.00, 0.00, -1581.69, 0.00, 0.000, 0.000, 0.000, 19:27:25.979
58, 0.00, 0.00, -1005.06, 0.00, 0.000, 0.000, 0.000, 19:27:25.979
59, 0.00, 0.00, -630.70, 0.00, 0.000, 0.000, 0.000, 19:27:25.980
60, 0.00, 0.00, -1440.38, 0.00, 0.000, 0.000, 0.000, 19:27:25.980
61, 0.00, 0.00, -1229.20, 0.00, 0.000, 0.000, 0.000, 19:27:25.994
62, 0.00, 0.00, -555.99, 0.00, 0.000, 0.000, 0.000, 19:27:25.994
63, 0.00, 0.00, -1137.74, 0.00, 0.000, 0.000, 0.000, 19:27:26.009
64, 0.00, 0.00, -1491.40, 0.00, 0.000, 0.000, 0.000, 19:27:26.009
65, 0.00, 0.00, -705.57, 0.00, 0.000, 0.000, 0.000, 19:27:26.009
66, 0.00, 0.00, -786.64, 0.00, 0.000, 0.000, 0.000, 19:27:26.010
67, 0.00, 0.00, -1647.68, 0.00, 0.000, 0.000, 0.000, 19:27:26.024
68, 0.00, 0.00, -940.35, 0.00, 0.000, 0.000, 0.000, 19:27:26.024
69, 0.00, 0.00, -601.76, 0.00, 0.000, 0.000, 0.000, 19:27:26.039
70, 0.00, 0.00, -1343.78, 0.00, 0.000, 0.000, 0.000, 19:27:26.039
71, 0.00, 0.00, -1253.72, 0.00, 0.000, 0.000, 0.000, 19:27:26.039
72, 0.00, 0.00, -528.13, 0.00, 0.000, 0.000, 0.000, 19:27:26.040
73, 0.00, 0.00, -1128.59, 0.00, 0.000, 0.000, 0.000, 19:27:26.054
74, 0.00, 0.00, -1533.77, 0.00, 0.000, 0.000, 0.000, 19:27:26.054
75, 0.00, 0.00, -684.13, 0.00, 0.000, 0.000, 0.000, 19:27:26.069
76, 0.00, 0.00, -757.66, 0.00, 0.000, 0.000, 0.000, 19:27:26.069
77, 0.00, 0.00, -1544.76, 0.00, 0.000, 0.000, 0.000, 19:27:26.069
78, 0.00, 0.00, -946.92, 0.00, 0.000, 0.000, 0.000, 19:27:26.070
79, 0.00, 0.00, -490.93, 0.00, 0.000, 0.000, 0.000, 19:27:26.084
80, 0.00, 0.00, -1451.24, 0.00, 0.000, 0.000, 0.000, 19:27:26.084
81, 0.00, 0.00, -1256.11, 0.00, 0.000, 0.000, 0.000, 19:27:26.099
82, 0.00, 0.00, -506.66, 0.00, 0.000, 0.000, 0.000, 19:27:26.099
83, 0.00, 0.00, -1028.27, 0.00, 0.000, 0.000, 0.000, 19:27:26.100
84, 0.00, 0.00, -1602.50, 0.00, 0.000, 0.000, 0.000, 19:27:26.100
85, 0.00, 0.00, -623.07, 0.00, 0.000, 0.000, 0.000, 19:27:26.114
86, 0.00, 0.00, -732.38, 0.00, 0.000, 0.000, 0.000, 19:27:26.114
87, 0.00, 0.00, -1486.68, 0.00, 0.000, 0.000, 0.000, 19:27:26.131
88, 0.00, 0.00, -978.77, 0.00, 0.000, 0.000, 0.000, 19:27:26.131
89, 0.00, 0.00, -498.76, 0.00, 0.000, 0.000, 0.000, 19:27:26.131
90, 0.00, 0.00, -1355.68, 0.00, 0.000, 0.000, 0.000, 19:27:26.132
91, 0.00, 0.00, -1249.50, 0.00, 0.000, 0.000, 0.000, 19:27:26.144
92, 0.00, 0.00, -474.83, 0.00, 0.000, 0.000, 0.000, 19:27:26.144
93, 0.00, 0.00, -1044.92, 0.00, 0.000, 0.000, 0.000, 19:27:26.159
94, 0.00, 0.00, -1503.55, 0.00, 0.000, 0.000, 0.000, 19:27:26.159
95, 0.00, 0.00, -723.50, 0.00, 0.000, 0.000, 0.000, 19:27:26.160
96, 0.00, 0.00, -703.76, 0.00, 0.000, 0.000, 0.000, 19:27:26.160
97, 0.00, 0.00, -1505.15, 0.00, 0.000, 0.000, 0.000, 19:27:26.174
98, 0.00, 0.00, -1003.47, 0.00, 0.000, 0.000, 0.000, 19:27:26.175
99, 0.00, 0.00, -471.58, 0.00, 0.000, 0.000, 0.000, 19:27:26.189
100, 0.00, 0.00, -1421.40, 0.00, 0.000, 0.000, 0.000, 19:27:26.190
101, 0.00, 0.00, -1362.67, 0.00, 0.000, 0.000, 0.000, 19:27:26.190
102, 0.00, 0.00, -531.32, 0.00, 0.000, 0.000, 0.000, 19:27:26.191
103, 0.00, 0.00, -1180.05, 0.00, 0.000, 0.000, 0.000, 19:27:26.205
104, 0.00, 0.00, -1547.02, 0.00, 0.000, 0.000, 0.000, 19:27:26.205
105, 0.00, 0.00, -782.60, 0.00, 0.000, 0.000, 0.000, 19:27:26.219
106, 0.00, 0.00, -765.85, 0.00, 0.000, 0.000, 0.000, 19:27:26.219
107, 0.00, 0.00, -1607.38, 0.00, 0.000, 0.000, 0.000, 19:27:26.220
108, 0.00, 0.00, -1074.84, 0.00, 0.000, 0.000, 0.000, 19:27:26.220
109, 0.00, 0.00, -613.31, 0.00, 0.000, 0.000, 0.000, 19:27:26.234
110, 0.00, 0.00, -1433.03, 0.00, 0.000, 0.000, 0.000, 19:27:26.234
111, 0.00, 0.00, -1344.98, 0.00, 0.000, 0.000, 0.000, 19:27:26.249
112, 0.00, 0.00, -534.64, 0.00, 0.000, 0.000, 0.000, 19:27:26.249
113, 0.00, 0.00, -1074.15, 0.00, 0.000, 0.000, 0.000, 19:27:26.249
114, 0.00, 0.00, -1580.55, 0.00, 0.000, 0.000, 0.000, 19:27:26.249
115, 0.00, 0.00, -727.74, 0.00, 0.000, 0.000, 0.000, 19:27:26.264
116, 0.00, 0.00, -846.31, 0.00, 0.000, 0.000, 0.000, 19:27:26.264
117, 0.00, 0.00, -1547.62, 0.00, 0.000, 0.000, 0.000, 19:27:26.279
118, 0.00, 0.00, -922.47, 0.00, 0.000, 0.000, 0.000, 19:27:26.279
119, 0.00, 0.00, -563.02, 0.00, 0.000, 0.000, 0.000, 19:27:26.280
120, 0.00, 0.00, -1475.60, 0.00, 0.000, 0.000, 0.000, 19:27:26.280
121, 0.00, 0.00, -1319.14, 0.00, 0.000, 0.000, 0.000, 19:27:26.294
122, 0.00, 0.00, -542.68, 0.00, 0.000, 0.000, 0.000, 19:27:26.294
123, 0.00, 0.00, -1061.17, 0.00, 0.000, 0.000, 0.000, 19:27:26.310
124, 0.00, 0.00, -1560.88, 0.00, 0.000, 0.000, 0.000, 19:27:26.310
125, 0.00, 0.00, -702.46, 0.00, 0.000, 0.000, 0.000, 19:27:26.310
126, 0.00, 0.00, -811.70, 0.00, 0.000, 0.000, 0.000, 19:27:26.310
127, 0.00, 0.00, -1546.09, 0.00, 0.000, 0.000, 0.000, 19:27:26.324
128, 0.00, 0.00, -982.66, 0.00, 0.000, 0.000, 0.000, 19:27:26.324
129, 0.00, 0.00, -488.00, 0.00, 0.000, 0.000, 0.000, 19:27:26.339
130, 0.00, 0.00, -1428.71, 0.00, 0.000, 0.000, 0.000, 19:27:26.340
131, 0.00, 0.00, -1315.43, 0.00, 0.000, 0.000, 0.000, 19:27:26.340
132, 0.00, 0.00, -546.93, 0.00, 0.000, 0.000, 0.000, 19:27:26.340
133, 0.00, 0.00, -1028.18, 0.00, 0.000, 0.000, 0.000, 19:27:26.354
134, 0.00, 0.00, -1466.81, 0.00, 0.000, 0.000, 0.000, 19:27:26.354
135, 0.00, 0.00, -635.24, 0.00, 0.000, 0.000, 0.000, 19:27:26.369
136, 0.00, 0.00, -698.69, 0.00, 0.000, 0.000, 0.000, 19:27:26.369
137, 0.00, 0.00, -1486.23, 0.00, 0.000, 0.000, 0.000, 19:27:26.369
138, 0.00, 0.00, -952.91, 0.00, 0.000, 0.000, 0.000, 19:27:26.370
139, 0.00, 0.00, -519.78, 0.00, 0.000, 0.000, 0.000, 19:27:26.384
140, 0.00, 0.00, -1352.19, 0.00, 0.000, 0.000, 0.000, 19:27:26.384
141, 0.00, 0.00, -1325.00, 0.00, 0.000, 0.000, 0.000, 19:27:26.399
142, 0.00, 0.00, -511.10, 0.00, 0.000, 0.000, 0.000, 19:27:26.399
143, 0.00, 0.00, -958.57, 0.00, 0.000, 0.000, 0.000, 19:27:26.399
144, 0.00, 0.00, -1632.18, 0.00, 0.000, 0.000, 0.000, 19:27:26.400
145, 0.00, 0.00, -660.11, 0.00, 0.000, 0.000, 0.000, 19:27:26.414
146, 0.00, 0.00, -784.17, 0.00, 0.000, 0.000, 0.000, 19:27:26.414
147, 0.00, 0.00, -1612.66, 0.00, 0.000, 0.000, 0.000, 19:27:26.429
148, 0.00, 0.00, -1019.58, 0.00, 0.000, 0.000, 0.000, 19:27:26.429
149, 0.00, 0.00, -569.03, 0.00, 0.000, 0.000, 0.000, 19:27:26.429
150, 0.00, 0.00, -1363.98, 0.00, 0.000, 0.000, 0.000, 19:27:26.430
151, 0.00, 0.00, -1382.51, 0.00, 0.000, 0.000, 0.000, 19:27:26.444
152, 0.00, 0.00, -517.70, 0.00, 0.000, 0.000, 0.000, 19:27:26.444
153, 0.00, 0.00, -1107.75, 0.00, 0.000, 0.000, 0.000, 19:27:26.459
154, 0.00, 0.00, -1584.75, 0.00, 0.000, 0.000, 0.000, 19:27:26.459
155, 0.00, 0.00, -720.51, 0.00, 0.000, 0.000, 0.000, 19:27:26.460
156, 0.00, 0.00, -797.22, 0.00, 0.000, 0.000, 0.000, 19:27:26.460
157, 0.00, 0.00, -1611.92, 0.00, 0.000, 0.000, 0.000, 19:27:26.474
158, 0.00, 0.00, -994.06, 0.00, 0.000, 0.000, 0.000, 19:27:26.474
159, 0.00, 0.00, -563.27, 0.00, 0.000, 0.000, 0.000, 19:27:26.490
160, 0.00, 0.00, -1352.59, 0.00, 0.000, 0.000, 0.000, 19:27:26.490
161, 0.00, 0.00, -1411.74, 0.00, 0.000, 0.000, 0.000, 19:27:26.490
162, 0.00, 0.00, -523.19, 0.00, 0.000, 0.000, 0.000, 19:27:26.490
163, 0.00, 0.00, -1084.67, 0.00, 0.000, 0.000, 0.000, 19:27:26.504
164, 0.00, 0.00, -1517.72, 0.00, 0.000, 0.000, 0.000, 19:27:26.504
165, 0.00, 0.00, -748.82, 0.00, 0.000, 0.000, 0.000, 19:27:26.519
166, 0.00, 0.00, -740.08, 0.00, 0.000, 0.000, 0.000, 19:27:26.519
167, 0.00, 0.00, -1612.22, 0.00, 0.000, 0.000, 0.000, 19:27:26.520
168, 0.00, 0.00, -963.04, 0.00, 0.000, 0.000, 0.000, 19:27:26.520
169, 0.00, 0.00, -547.87, 0.00, 0.000, 0.000, 0.000, 19:27:26.534
170, 0.00, 0.00, -1288.37, 0.00, 0.000, 0.000, 0.000, 19:27:26.534
171, 0.00, 0.00, -1411.72, 0.00, 0.000, 0.000, 0.000, 19:27:26.549
172, 0.00, 0.00, -610.59, 0.00, 0.000, 0.000, 0.000, 19:27:26.549
173, 0.00, 0.00, -1084.89, 0.00, 0.000, 0.000, 0.000, 19:27:26.549
174, 0.00, 0.00, -1531.09, 0.00, 0.000, 0.000, 0.000, 19:27:26.550
175, 0.00, 0.00, -722.73, 0.00, 0.000, 0.000, 0.000, 19:27:26.564
176, 0.00, 0.00, -645.86, 0.00, 0.000, 0.000, 0.000, 19:27:26.564
177, 0.00, 0.00, -1508.74, 0.00, 0.000, 0.000, 0.000, 19:27:26.579
178, 0.00, 0.00, -1021.16, 0.00, 0.000, 0.000, 0.000, 19:27:26.579
179, 0.00, 0.00, -532.82, 0.00, 0.000, 0.000, 0.000, 19:27:26.579
180, 0.00, 0.00, -1401.26, 0.00, 0.000, 0.000, 0.000, 19:27:26.580
181, 0.00, 0.00, -1297.66, 0.00, 0.000, 0.000, 0.000, 19:27:26.595
182, 0.00, 0.00, -544.25, 0.00, 0.000, 0.000, 0.000, 19:27:26.595
183, 0.00, 0.00, -1023.60, 0.00, 0.000, 0.000, 0.000, 19:27:26.609
184, 0.00, 0.00, -1515.86, 0.00, 0.000, 0.000, 0.000, 19:27:26.609
185, 0.00, 0.00, -789.32, 0.00, 0.000, 0.000, 0.000, 19:27:26.610
186, 0.00, 0.00, -761.76, 0.00, 0.000, 0.000, 0.000, 19:27:26.610
187, 0.00, 0.00, -1489.87, 0.00, 0.000, 0.000, 0.000, 19:27:26.624
188, 0.00, 0.00, -1067.41, 0.00, 0.000, 0.000, 0.000, 19:27:26.624
189, 0.00, 0.00, -527.61, 0.00, 0.000, 0.000, 0.000, 19:27:26.639
190, 0.00, 0.00, -1348.86, 0.00, 0.000, 0.000, 0.000, 19:27:26.639
191, 0.00, 0.00, -1398.92, 0.00, 0.000, 0.000, 0.000, 19:27:26.639
192, 0.00, 0.00, -600.97, 0.00, 0.000, 0.000, 0.000, 19:27:26.640
193, 0.00, 0.00, -1063.06, 0.00, 0.000, 0.000, 0.000, 19:27:26.654
194, 0.00, 0.00, -1532.56, 0.00, 0.000, 0.000, 0.000, 19:27:26.654
195, 0.00, 0.00, -732.84, 0.00, 0.000, 0.000, 0.000, 19:27:26.669
196, 0.00, 0.00, -767.28, 0.00, 0.000, 0.000, 0.000, 19:27:26.669
197, 0.00, 0.00, -1549.44, 0.00, 0.000, 0.000, 0.000, 19:27:26.670
198, 0.00, 0.00, -993.55, 0.00, 0.000, 0.000, 0.000, 19:27:26.670
199, 0.00, 0.00, -565.07, 0.00, 0.000, 0.000, 0.000, 19:27:26.684
200, 0.00, 0.00, -1318.57, 0.00, 0.000, 0.000, 0.000, 19:27:26.684
0, 0.00, 0.00, -312.94, 0.00, 0.000, 0.000, 0.000, 19:27:26.684
1, 0.00, 0.00, 499.78, 0.00, 0.000, 0.000, 0.000, 19:27:26.699
2, 0.00, 0.00, 99.76, 0.00, 0.000, 0.000, 0.000, 19:27:26.699
3, 0.00, 0.00, -343.96, 0.00, 0.000, 0.000, 0.000, 19:27:26.714
4, 0.00, 0.00, 586.47, 0.00, 0.000, 0.000, 0.000, 19:27:26.714
5, 0.00, 0.00, 521.65, 0.00, 0.000, 0.000, 0.000, 19:27:26.714
6, 0.00, 0.00, -401.32, 0.00, 0.000, 0.000, 0.000, 19:27:26.715
7, 0.00, 0.00, 9.83, 0.00, 0.000, 0.000, 0.000, 19:27:26.729
8, 0.00, 0.00, 397.68, 0.00, 0.000, 0.000, 0.000, 19:27:26.729
9, 0.00, 0.00, 275.55, 0.00, 0.000, 0.000, 0.000, 19:27:26.744
10, 0.00, 0.00, 400.83, 0.00, 0.000, 0.000, 0.000, 19:27:26.744
11, 0.00, 0.00, 1345.11, 0.00, 0.000, 0.000, 0.000, 19:27:26.745
12, 0.00, 0.00, 850.75, 0.00, 0.000, 0.000, 0.000, 19:27:26.745
13, 0.00, 0.00, 339.47, 0.00, 0.000, 0.000, 0.000, 19:27:26.759
14, 0.00, 0.00, 1188.33, 0.00, 0.000, 0.000, 0.000, 19:27:26.759
15, 0.00, 0.00, 1139.12, 0.00, 0.000, 0.000, 0.000, 19:27:26.774
16, 0.00, 0.00, 378.70, 0.00, 0.000, 0.000, 0.000, 19:27:26.774
17, 0.00, 0.00, 879.57, 0.00, 0.000, 0.000, 0.000, 19:27:26.775
18, 0.00, 0.00, 1366.34, 0.00, 0.000, 0.000, 0.000, 19:27:26.775
19, 0.00, 0.00, 601.03, 0.00, 0.000, 0.000, 0.000, 19:27:26.789
20, 0.00, 0.00, 590.47, 0.00, 0.000, 0.000, 0.000, 19:27:26.789
21, 0.00, 0.00, 1446.02, 0.00, 0.000, 0.000, 0.000, 19:27:26.804
22, 0.00, 0.00, 877.11, 0.00, 0.000, 0.000, 0.000, 19:27:26.805
23, 0.00, 0.00, 407.76, 0.00, 0.000, 0.000, 0.000, 19:27:26.805
24, 0.00, 0.00, 1171.52, 0.00, 0.000, 0.000, 0.000, 19:27:26.805
25, 0.00, 0.00, 1228.34, 0.00, 0.000, 0.000, 0.000, 19:27:26.819
26, 0.00, 0.00, 513.08, 0.00, 0.000, 0.000, 0.000, 19:27:26.819
27, 0.00, 0.00, 855.55, 0.00, 0.000, 0.000, 0.000, 19:27:26.834
28, 0.00, 0.00, 1443.55, 0.00, 0.000, 0.000, 0.000, 19:27:26.834
29, 0.00, 0.00, 613.48, 0.00, 0.000, 0.000, 0.000, 19:27:26.835
30, 0.00, 0.00, 542.97, 0.00, 0.000, 0.000, 0.000, 19:27:26.835
31, 0.00, 0.00, 1367.91, 0.00, 0.000, 0.000, 0.000, 19:27:26.849
32, 0.00, 0.00, 933.34, 0.00, 0.000, 0.000, 0.000, 19:27:26.849
33, 0.00, 0.00, 438.29, 0.00, 0.000, 0.000, 0.000, 19:27:26.864
34, 0.00, 0.00, 1177.68, 0.00, 0.000, 0.000, 0.000, 19:27:26.864
35, 0.00, 0.00, 1229.51, 0.00, 0.000, 0.000, 0.000, 19:27:26.864
36, 0.00, 0.00, 501.09, 0.00, 0.000, 0.000, 0.000, 19:27:26.865
37, 0.00, 0.00, 843.96, 0.00, 0.000, 0.000, 0.000, 19:27:26.879
38, 0.00, 0.00, 1451.10, 0.00, 0.000, 0.000, 0.000, 19:27:26.880
39, 0.00, 0.00, 722.53, 0.00, 0.000, 0.000, 0.000, 19:27:26.894
40, 0.00, 0.00, 558.42, 0.00, 0.000, 0.000, 0.000, 19:27:26.894
41, 0.00, 0.00, 1411.85, 0.00, 0.000, 0.000, 0.000, 19:27:26.894
42, 0.00, 0.00, 1000.89, 0.00, 0.000, 0.000, 0.000, 19:27:26.895
43, 0.00, 0.00, 433.79, 0.00, 0.000, 0.000, 0.000, 19:27:26.909
44, 0.00, 0.00, 1211.14, 0.00, 0.000, 0.000, 0.000, 19:27:26.909
45, 0.00, 0.00, 1269.67, 0.00, 0.000, 0.000, 0.000, 19:27:26.924
46, 0.00, 0.00, 486.14, 0.00, 0.000, 0.000, 0.000, 19:27:26.924
47, 0.00, 0.00, 893.22, 0.00, 0.000, 0.000, 0.000, 19:27:26.924
48, 0.00, 0.00, 1474.06, 0.00, 0.000, 0.000, 0.000, 19:27:26.925
49, 0.00, 0.00, 638.73, 0.00, 0.000, 0.000, 0.000, 19:27:26.939
50, 0.00, 0.00, 653.23, 0.00, 0.000, 0.000, 0.000, 19:27:26.939
51, 0.00, 0.00, 1529.21, 0.00, 0.000, 0.000, 0.000, 19:27:26.954
52, 0.00, 0.00, 960.52, 0.00, 0.000, 0.000, 0.000, 19:27:26.954
53, 0.00, 0.00, 428.67, 0.00, 0.000, 0.000, 0.000, 19:27:26.954
54, 0.00, 0.00, 1259.89, 0.00, 0.000, 0.000, 0.000, 19:27:26.955
55, 0.00, 0.00, 1247.35, 0.00, 0.000, 0.000, 0.000, 19:27:26.969
56, 0.00, 0.00, 501.46, 0.00, 0.000, 0.000, 0.000, 19:27:26.969
57, 0.00, 0.00, 851.17, 0.00, 0.000, 0.000, 0.000, 19:27:26.984
58, 0.00, 0.00, 1480.04, 0.00, 0.000, 0.000, 0.000, 19:27:26.984
59, 0.00, 0.00, 651.34, 0.00, 0.000, 0.000, 0.000, 19:27:26.985
60, 0.00, 0.00, 582.28, 0.00, 0.000, 0.000, 0.000, 19:27:26.985
61, 0.00, 0.00, 1449.97, 0.00, 0.000, 0.000, 0.000, 19:27:26.999
62, 0.00, 0.00, 979.34, 0.00, 0.000, 0.000, 0.000, 19:27:26.999
63, 0.00, 0.00, 381.68, 0.00, 0.000, 0.000, 0.000, 19:27:27.014
64, 0.00, 0.00, 1145.00, 0.00, 0.000, 0.000, 0.000, 19:27:27.014
65, 0.00, 0.00, 1193.18, 0.00, 0.000, 0.000, 0.000, 19:27:27.015
66, 0.00, 0.00, 399.90, 0.00, 0.000, 0.000, 0.000, 19:27:27.015
67, 0.00, 0.00, 824.95, 0.00, 0.000, 0.000, 0.000, 19:27:27.029
68, 0.00, 0.00, 1395.77, 0.00, 0.000, 0.000, 0.000, 19:27:27.030
69, 0.00, 0.00, 565.32, 0.00, 0.000, 0.000, 0.000, 19:27:27.044
70, 0.00, 0.00, 520.12, 0.00, 0.000, 0.000, 0.000, 19:27:27.044
71, 0.00, 0.00, 1378.39, 0.00, 0.000, 0.000, 0.000, 19:27:27.044
72, 0.00, 0.00, 880.31, 0.00, 0.000, 0.000, 0.000, 19:27:27.045
73, 0.00, 0.00, 457.05, 0.00, 0.000, 0.000, 0.000, 19:27:27.059
74, 0.00, 0.00, 1121.99, 0.00, 0.000, 0.000, 0.000, 19:27:27.059
75, 0.00, 0.00, 1267.01, 0.00, 0.000, 0.000, 0.000, 19:27:27.074
76, 0.00, 0.00, 334.66, 0.00, 0.000, 0.000, 0.000, 19:27:27.074
77, 0.00, 0.00, 895.84, 0.00, 0.000, 0.000, 0.000, 19:27:27.074
78, 0.00, 0.00, 1438.78, 0.00, 0.000, 0.000, 0.000, 19:27:27.075
79, 0.00, 0.00, 615.73, 0.00, 0.000, 0.000, 0.000, 19:27:27.090
80, 0.00, 0.00, 630.93, 0.00, 0.000, 0.000, 0.000, 19:27:27.090
81, 0.00, 0.00, 1387.76, 0.00, 0.000, 0.000, 0.000, 19:27:27.104
82, 0.00, 0.00, 912.91, 0.00, 0.000, 0.000, 0.000, 19:27:27.104
83, 0.00, 0.00, 384.13, 0.00, 0.000, 0.000, 0.000, 19:27:27.104
84, 0.00, 0.00, 1204.47, 0.00, 0.000, 0.000, 0.000, 19:27:27.105
85, 0.00, 0.00, 1262.29, 0.00, 0.000, 0.000, 0.000, 19:27:27.119
86, 0.00, 0.00, 397.55, 0.00, 0.000, 0.000, 0.000, 19:27:27.119
87, 0.00, 0.00, 851.41, 0.00, 0.000, 0.000, 0.000, 19:27:27.134
88, 0.00, 0.00, 1432.20, 0.00, 0.000, 0.000, 0.000, 19:27:27.134
89, 0.00, 0.00, 688.96, 0.00, 0.000, 0.000, 0.000, 19:27:27.134
90, 0.00, 0.00, 591.50, 0.00, 0.000, 0.000, 0.000, 19:27:27.135
91, 0.00, 0.00, 1385.05, 0.00, 0.000, 0.000, 0.000, 19:27:27.149
92, 0.00, 0.00, 945.15, 0.00, 0.000, 0.000, 0.000, 19:27:27.149
93, 0.00, 0.00, 424.01, 0.00, 0.000, 0.000, 0.000, 19:27:27.164
94, 0.00, 0.00, 1240.29, 0.00, 0.000, 0.000, 0.000, 19:27:27.164
95, 0.00, 0.00, 1327.11, 0.00, 0.000, 0.000, 0.000, 19:27:27.165
96, 0.00, 0.00, 424.22, 0.00, 0.000, 0.000, 0.000, 19:27:27.165
97, 0.00, 0.00, 883.02, 0.00, 0.000, 0.000, 0.000, 19:27:27.179
98, 0.00, 0.00, 1411.40, 0.00, 0.000, 0.000, 0.000, 19:27:27.179
99, 0.00, 0.00, 616.36, 0.00, 0.000, 0.000, 0.000, 19:27:27.194
100, 0.00, 0.00, 642.19, 0.00, 0.000, 0.000, 0.000, 19:27:27.194
101, 0.00, 0.00, 1381.18, 0.00, 0.000, 0.000, 0.000, 19:27:27.194
102, 0.00, 0.00, 953.33, 0.00, 0.000, 0.000, 0.000, 19:27:27.195
103, 0.00, 0.00, 381.97, 0.00, 0.000, 0.000, 0.000, 19:27:27.209
104, 0.00, 0.00, 1170.39, 0.00, 0.000, 0.000, 0.000, 19:27:27.209
105, 0.00, 0.00, 1250.99, 0.00, 0.000, 0.000, 0.000, 19:27:27.224
106, 0.00, 0.00, 448.77, 0.00, 0.000, 0.000, 0.000, 19:27:27.224
107, 0.00, 0.00, 872.59, 0.00, 0.000, 0.000, 0.000, 19:27:27.224
108, 0.00, 0.00, 1426.00, 0.00, 0.000, 0.000, 0.000, 19:27:27.225
109, 0.00, 0.00, 609.87, 0.00, 0.000, 0.000, 0.000, 19:27:27.239
110, 0.00, 0.00, 605.54, 0.00, 0.000, 0.000, 0.000, 19:27:27.239
111, 0.00, 0.00, 1355.01, 0.00, 0.000, 0.000, 0.000, 19:27:27.254
112, 0.00, 0.00, 1044.17, 0.00, 0.000, 0.000, 0.000, 19:27:27.254
113, 0.00, 0.00, 434.91, 0.00, 0.000, 0.000, 0.000, 19:27:27.254
114, 0.00, 0.00, 1226.43, 0.00, 0.000, 0.000, 0.000, 19:27:27.255
115, 0.00, 0.00, 1283.71, 0.00, 0.000, 0.000, 0.000, 19:27:27.270
116, 0.00, 0.00, 468.67, 0.00, 0.000, 0.000, 0.000, 19:27:27.270
117, 0.00, 0.00, 796.89, 0.00, 0.000, 0.000, 0.000, 19:27:27.284
118, 0.00, 0.00, 1435.35, 0.00, 0.000, 0.000, 0.000, 19:27:27.284
119, 0.00, 0.00, 631.72, 0.00, 0.000, 0.000, 0.000, 19:27:27.284
120, 0.00, 0.00, 600.55, 0.00, 0.000, 0.000, 0.000, 19:27:27.285
121, 0.00, 0.00, 1345.54, 0.00, 0.000, 0.000, 0.000, 19:27:27.299
122, 0.00, 0.00, 947.89, 0.00, 0.000, 0.000, 0.000, 19:27:27.299
123, 0.00, 0.00, 407.44, 0.00, 0.000, 0.000, 0.000, 19:27:27.314
124, 0.00, 0.00, 1132.32, 0.00, 0.000, 0.000, 0.000, 19:27:27.314
125, 0.00, 0.00, 1258.74, 0.00, 0.000, 0.000, 0.000, 19:27:27.314
126, 0.00, 0.00, 478.06, 0.00, 0.000, 0.000, 0.000, 19:27:27.315
127, 0.00, 0.00, 845.06, 0.00, 0.000, 0.000, 0.000, 19:27:27.329
128, 0.00, 0.00, 1453.09, 0.00, 0.000, 0.000, 0.000, 19:27:27.329
129, 0.00, 0.00, 646.78, 0.00, 0.000, 0.000, 0.000, 19:27:27.344
130, 0.00, 0.00, 514.41, 0.00, 0.000, 0.000, 0.000, 19:27:27.344
131, 0.00, 0.00, 1380.97, 0.00, 0.000, 0.000, 0.000, 19:27:27.345
132, 0.00, 0.00, 1043.31, 0.00, 0.000, 0.000, 0.000, 19:27:27.345
133, 0.00, 0.00, 467.09, 0.00, 0.000, 0.000, 0.000, 19:27:27.359
134, 0.00, 0.00, 1233.09, 0.00, 0.000, 0.000, 0.000, 19:27:27.359
135, 0.00, 0.00, 1245.00, 0.00, 0.000, 0.000, 0.000, 19:27:27.374
136, 0.00, 0.00, 445.76, 0.00, 0.000, 0.000, 0.000, 19:27:27.374
137, 0.00, 0.00, 841.52, 0.00, 0.000, 0.000, 0.000, 19:27:27.375
138, 0.00, 0.00, 1401.89, 0.00, 0.000, 0.000, 0.000, 19:27:27.375
139, 0.00, 0.00, 686.72, 0.00, 0.000, 0.000, 0.000, 19:27:27.389
140, 0.00, 0.00, 556.24, 0.00, 0.000, 0.000, 0.000, 19:27:27.389
141, 0.00, 0.00, 1389.21, 0.00, 0.000, 0.000, 0.000, 19:27:27.404
142, 0.00, 0.00, 947.15, 0.00, 0.000, 0.000, 0.000, 19:27:27.404
143, 0.00, 0.00, 454.06, 0.00, 0.000, 0.000, 0.000, 19:27:27.405
144, 0.00, 0.00, 1222.52, 0.00, 0.000, 0.000, 0.000, 19:27:27.405
145, 0.00, 0.00, 1279.92, 0.00, 0.000, 0.000, 0.000, 19:27:27.419
146, 0.00, 0.00, 462.25, 0.00, 0.000, 0.000, 0.000, 19:27:27.419
147, 0.00, 0.00, 915.18, 0.00, 0.000, 0.000, 0.000, 19:27:27.434
148, 0.00, 0.00, 1409.49, 0.00, 0.000, 0.000, 0.000, 19:27:27.434
149, 0.00, 0.00, 778.60, 0.00, 0.000, 0.000, 0.000, 19:27:27.434
150, 0.00, 0.00, 555.28, 0.00, 0.000, 0.000, 0.000, 19:27:27.435
151, 0.00, 0.00, 1416.78, 0.00, 0.000, 0.000, 0.000, 19:27:27.450
152, 0.00, 0.00, 944.74, 0.00, 0.000, 0.000, 0.000, 19:27:27.450
153, 0.00, 0.00, 344.84, 0.00, 0.000, 0.000, 0.000, 19:27:27.464
154, 0.00, 0.00, 1190.56, 0.00, 0.000, 0.000, 0.000, 19:27:27.464
155, 0.00, 0.00, 1268.24, 0.00, 0.000, 0.000, 0.000, 19:27:27.464
156, 0.00, 0.00, 381.72, 0.00, 0.000, 0.000, 0.000, 19:27:27.465
157, 0.00, 0.00, 835.10, 0.00, 0.000, 0.000, 0.000, 19:27:27.494
158, 0.00, 0.00, 1395.10, 0.00, 0.000, 0.000, 0.000, 19:27:27.494
159, 0.00, 0.00, 680.01, 0.00, 0.000, 0.000, 0.000, 19:27:27.494
160, 0.00, 0.00, 515.08, 0.00, 0.000, 0.000, 0.000, 19:27:27.494
161, 0.00, 0.00, 1374.22, 0.00, 0.000, 0.000, 0.000, 19:27:27.495
162, 0.00, 0.00, 1002.21, 0.00, 0.000, 0.000, 0.000, 19:27:27.495
163, 0.00, 0.00, 374.07, 0.00, 0.000, 0.000, 0.000, 19:27:27.509
164, 0.00, 0.00, 1071.56, 0.00, 0.000, 0.000, 0.000, 19:27:27.509
165, 0.00, 0.00, 1274.76, 0.00, 0.000, 0.000, 0.000, 19:27:27.524
166, 0.00, 0.00, 476.25, 0.00, 0.000, 0.000, 0.000, 19:27:27.525
167, 0.00, 0.00, 884.82, 0.00, 0.000, 0.000, 0.000, 19:27:27.525
168, 0.00, 0.00, 1480.65, 0.00, 0.000, 0.000, 0.000, 19:27:27.525
169, 0.00, 0.00, 674.65, 0.00, 0.000, 0.000, 0.000, 19:27:27.539
170, 0.00, 0.00, 598.62, 0.00, 0.000, 0.000, 0.000, 19:27:27.539
171, 0.00, 0.00, 1416.27, 0.00, 0.000, 0.000, 0.000, 19:27:27.554
172, 0.00, 0.00, 1082.52, 0.00, 0.000, 0.000, 0.000, 19:27:27.554
173, 0.00, 0.00, 626.56, 0.00, 0.000, 0.000, 0.000, 19:27:27.555
174, 0.00, 0.00, 1511.33, 0.00, 0.000, 0.000, 0.000, 19:27:27.555
175, 0.00, 0.00, 1633.17, 0.00, 0.000, 0.000, 0.000, 19:27:27.569
176, 0.00, 0.00, 1577.33, 0.00, 0.000, 0.000, 0.000, 19:27:27.569
177, 0.00, 0.00, 1936.64, 0.00, 0.000, 0.000, 0.000, 19:27:27.584
178, 0.00, 0.00, 2381.45, 0.00, 0.000, 0.000, 0.000, 19:27:27.584
179, 0.00, 0.00, 2369.23, 0.00, 0.000, 0.000, 0.000, 19:27:27.584
180, 0.00, 0.00, 2231.42, 0.00, 0.000, 0.000, 0.000, 19:27:27.585
181, 0.00, 0.00, 2251.50, 0.00, 0.000, 0.000, 0.000, 19:27:27.599
182, 0.00, 0.00, 1970.37, 0.00, 0.000, 0.000, 0.000, 19:27:27.599
183, 0.00, 0.00, 1296.11, 0.00, 0.000, 0.000, 0.000, 19:27:27.614
184, 0.00, 0.00, 2091.71, 0.00, 0.000, 0.000, 0.000, 19:27:27.614
185, 0.00, 0.00, 2250.02, 0.00, 0.000, 0.000, 0.000, 19:27:27.615
186, 0.00, 0.00, 1316.90, 0.00, 0.000, 0.000, 0.000, 19:27:27.615
187, 0.00, 0.00, 1815.14, 0.00, 0.000, 0.000, 0.000, 19:27:27.629
188, 0.00, 0.00, 2381.98, 0.00, 0.000, 0.000, 0.000, 19:27:27.629
189, 0.00, 0.00, 1666.62, 0.00, 0.000, 0.000, 0.000, 19:27:27.644
190, 0.00, 0.00, 1466.76, 0.00, 0.000, 0.000, 0.000, 19:27:27.644
191, 0.00, 0.00, 2340.48, 0.00, 0.000, 0.000, 0.000, 19:27:27.644
192, 0.00, 0.00, 1984.50, 0.00, 0.000, 0.000, 0.000, 19:27:27.645
193, 0.00, 0.00, 1272.74, 0.00, 0.000, 0.000, 0.000, 19:27:27.659
194, 0.00, 0.00, 2131.44, 0.00, 0.000, 0.000, 0.000, 19:27:27.659
195, 0.00, 0.00, 2316.68, 0.00, 0.000, 0.000, 0.000, 19:27:27.674
196, 0.00, 0.00, 1442.36, 0.00, 0.000, 0.000, 0.000, 19:27:27.674
197, 0.00, 0.00, 1746.46, 0.00, 0.000, 0.000, 0.000, 19:27:27.675
198, 0.00, 0.00, 2386.34, 0.00, 0.000, 0.000, 0.000, 19:27:27.675
199, 0.00, 0.00, 1730.37, 0.00, 0.000, 0.000, 0.000, 19:27:27.689
200, 0.00, 0.00, 1529.31, 0.00, 0.000, 0.000, 0.000, 19:27:27.689
0, 0.00, 0.00, 374.06, 0.00, 0.000, 0.000, 0.000, 19:27:27.690
1, 0.00, 0.00, 27.37, 0.00, 0.000, 0.000, 0.000, 19:27:27.704
2, 0.00, 0.00, -594.20, 0.00, 0.000, 0.000, 0.000, 19:27:27.704
3, 0.00, 0.00, 252.53, 0.00, 0.000, 0.000, 0.000, 19:27:27.719
4, 0.00, 0.00, 293.32, 0.00, 0.000, 0.000, 0.000, 19:27:27.719
5, 0.00, 0.00, -435.29, 0.00, 0.000, 0.000, 0.000, 19:27:27.719
6, 0.00, 0.00, -190.88, 0.00, 0.000, 0.000, 0.000, 19:27:27.720
7, 0.00, 0.00, 473.39, 0.00, 0.000, 0.000, 0.000, 19:27:27.734
8, 0.00, 0.00, -234.35, 0.00, 0.000, 0.000, 0.000, 19:27:27.734
9, 0.00, 0.00, -452.65, 0.00, 0.000, 0.000, 0.000, 19:27:27.749
10, 0.00, 0.00, 434.29, 0.00, 0.000, 0.000, 0.000, 19:27:27.749
11, 0.00, 0.00, 19.55, 0.00, 0.000, 0.000, 0.000, 19:27:27.749
12, 0.00, 0.00, -533.03, 0.00, 0.000, 0.000, 0.000, 19:27:27.750
13, 0.00, 0.00, 155.94, 0.00, 0.000, 0.000, 0.000, 19:27:27.779
14, 0.00, 0.00, 338.34, 0.00, 0.000, 0.000, 0.000, 19:27:27.779
15, 0.00, 0.00, -523.00, 0.00, 0.000, 0.000, 0.000, 19:27:27.779
16, 0.00, 0.00, -90.26, 0.00, 0.000, 0.000, 0.000, 19:27:27.780
17, 0.00, 0.00, 488.32, 0.00, 0.000, 0.000, 0.000, 19:27:27.780
18, 0.00, 0.00, -226.16, 0.00, 0.000, 0.000, 0.000, 19:27:27.780
19, 0.00, 0.00, -399.00, 0.00, 0.000, 0.000, 0.000, 19:27:27.794
20, 0.00, 0.00, 389.54, 0.00, 0.000, 0.000, 0.000, 19:27:27.794
21, 0.00, 0.00, 184.45, 0.00, 0.000, 0.000, 0.000, 19:27:27.809
22, 0.00, 0.00, -569.33, 0.00, 0.000, 0.000, 0.000, 19:27:27.809
23, 0.00, 0.00, 235.32, 0.00, 0.000, 0.000, 0.000, 19:27:27.810
24, 0.00, 0.00, 352.41, 0.00, 0.000, 0.000, 0.000, 19:27:27.810
25, 0.00, 0.00, -413.47, 0.00, 0.000, 0.000, 0.000, 19:27:27.824
26, 0.00, 0.00, -188.30, 0.00, 0.000, 0.000, 0.000, 19:27:27.824
27, 0.00, 0.00, 515.00, 0.00, 0.000, 0.000, 0.000, 19:27:27.839
28, 0.00, 0.00, -267.97, 0.00, 0.000, 0.000, 0.000, 19:27:27.839
29, 0.00, 0.00, -432.22, 0.00, 0.000, 0.000, 0.000, 19:27:27.840
30, 0.00, 0.00, 376.42, 0.00, 0.000, 0.000, 0.000, 19:27:27.840
31, 0.00, 0.00, 62.57, 0.00, 0.000, 0.000, 0.000, 19:27:27.854
32, 0.00, 0.00, -625.01, 0.00, 0.000, 0.000, 0.000, 19:27:27.854
33, 0.00, 0.00, 163.65, 0.00, 0.000, 0.000, 0.000, 19:27:27.869
34, 0.00, 0.00, 267.45, 0.00, 0.000, 0.000, 0.000, 19:27:27.869
35, 0.00, 0.00, -592.62, 0.00, 0.000, 0.000, 0.000, 19:27:27.869
36, 0.00, 0.00, -218.09, 0.00, 0.000, 0.000, 0.000, 19:27:27.870
37, 0.00, 0.00, 416.54, 0.00, 0.000, 0.000, 0.000, 19:27:27.884
38, 0.00, 0.00, -296.63, 0.00, 0.000, 0.000, 0.000, 19:27:27.884
39, 0.00, 0.00, -507.11, 0.00, 0.000, 0.000, 0.000, 19:27:27.899
40, 0.00, 0.00, 295.18, 0.00, 0.000, 0.000, 0.000, 19:27:27.899
41, 0.00, 0.00, 31.97, 0.00, 0.000, 0.000, 0.000, 19:27:27.914
42, 0.00, 0.00, -587.48, 0.00, 0.000, 0.000, 0.000, 19:27:27.915
43, 0.00, 0.00, 113.57, 0.00, 0.000, 0.000, 0.000, 19:27:27.915
44, 0.00, 0.00, 277.24, 0.00, 0.000, 0.000, 0.000, 19:27:27.915
45, 0.00, 0.00, -564.26, 0.00, 0.000, 0.000, 0.000, 19:27:27.929
46, 0.00, 0.00, -202.69, 0.00, 0.000, 0.000, 0.000, 19:27:27.929
47, 0.00, 0.00, 422.84, 0.00, 0.000, 0.000, 0.000, 19:27:27.929
48, 0.00, 0.00, -254.63, 0.00, 0.000, 0.000, 0.000, 19:27:27.930
49, 0.00, 0.00, -438.07, 0.00, 0.000, 0.000, 0.000, 19:27:27.944
50, 0.00, 0.00, 381.63, 0.00, 0.000, 0.000, 0.000, 19:27:27.944
51, 0.00, 0.00, 3.47, 0.00, 0.000, 0.000, 0.000, 19:27:27.959
52, 0.00, 0.00, -631.84, 0.00, 0.000, 0.000, 0.000, 19:27:27.959
53, 0.00, 0.00, 153.92, 0.00, 0.000, 0.000, 0.000, 19:27:27.959
54, 0.00, 0.00, 288.68, 0.00, 0.000, 0.000, 0.000, 19:27:27.960
55, 0.00, 0.00, -421.72, 0.00, 0.000, 0.000, 0.000, 19:27:27.974
56, 0.00, 0.00, -161.89, 0.00, 0.000, 0.000, 0.000, 19:27:27.974
57, 0.00, 0.00, 469.24, 0.00, 0.000, 0.000, 0.000, 19:27:27.989
58, 0.00, 0.00, -292.75, 0.00, 0.000, 0.000, 0.000, 19:27:27.989
59, 0.00, 0.00, -464.04, 0.00, 0.000, 0.000, 0.000, 19:27:27.990
60, 0.00, 0.00, 414.34, 0.00, 0.000, 0.000, 0.000, 19:27:27.990
61, 0.00, 0.00, 89.32, 0.00, 0.000, 0.000, 0.000, 19:27:28.004
62, 0.00, 0.00, -568.09, 0.00, 0.000, 0.000, 0.000, 19:27:28.004
63, 0.00, 0.00, 91.52, 0.00, 0.000, 0.000, 0.000, 19:27:28.020
64, 0.00, 0.00, 348.45, 0.00, 0.000, 0.000, 0.000, 19:27:28.020
65, 0.00, 0.00, -493.34, 0.00, 0.000, 0.000, 0.000, 19:27:28.020
66, 0.00, 0.00, -184.28, 0.00, 0.000, 0.000, 0.000, 19:27:28.020
67, 0.00, 0.00, 448.81, 0.00, 0.000, 0.000, 0.000, 19:27:28.034
68, 0.00, 0.00, -243.10, 0.00, 0.000, 0.000, 0.000, 19:27:28.034
69, 0.00, 0.00, -422.98, 0.00, 0.000, 0.000, 0.000, 19:27:28.049
70, 0.00, 0.00, 238.72, 0.00, 0.000, 0.000, 0.000, 19:27:28.049
71, 0.00, 0.00, 174.08, 0.00, 0.000, 0.000, 0.000, 19:27:28.050
72, 0.00, 0.00, -586.96, 0.00, 0.000, 0.000, 0.000, 19:27:28.050
73, 0.00, 0.00, 129.77, 0.00, 0.000, 0.000, 0.000, 19:27:28.064
74, 0.00, 0.00, 348.68, 0.00, 0.000, 0.000, 0.000, 19:27:28.064
75, 0.00, 0.00, -464.73, 0.00, 0.000, 0.000, 0.000, 19:27:28.079
76, 0.00, 0.00, -177.32, 0.00, 0.000, 0.000, 0.000, 19:27:28.079
77, 0.00, 0.00, 460.26, 0.00, 0.000, 0.000, 0.000, 19:27:28.079
78, 0.00, 0.00, -209.44, 0.00, 0.000, 0.000, 0.000, 19:27:28.080
79, 0.00, 0.00, -518.97, 0.00, 0.000, 0.000, 0.000, 19:27:28.094
80, 0.00, 0.00, 385.28, 0.00, 0.000, 0.000, 0.000, 19:27:28.095
81, 0.00, 0.00, 94.55, 0.00, 0.000, 0.000, 0.000, 19:27:28.109
82, 0.00, 0.00, -551.35, 0.00, 0.000, 0.000, 0.000, 19:27:28.109
83, 0.00, 0.00, 84.40, 0.00, 0.000, 0.000, 0.000, 19:27:28.109
84, 0.00, 0.00, 304.39, 0.00, 0.000, 0.000, 0.000, 19:27:28.110
85, 0.00, 0.00, -484.43, 0.00, 0.000, 0.000, 0.000, 19:27:28.124
86, 0.00, 0.00, -249.36, 0.00, 0.000, 0.000, 0.000, 19:27:28.124
87, 0.00, 0.00, 468.76, 0.00, 0.000, 0.000, 0.000, 19:27:28.139
88, 0.00, 0.00, -291.57, 0.00, 0.000, 0.000, 0.000, 19:27:28.139
89, 0.00, 0.00, -430.08, 0.00, 0.000, 0.000, 0.000, 19:27:28.139
90, 0.00, 0.00, 248.82, 0.00, 0.000, 0.000, 0.000, 19:27:28.140
91, 0.00, 0.00, 241.57, 0.00, 0.000, 0.000, 0.000, 19:27:28.154
92, 0.00, 0.00, -571.03, 0.00, 0.000, 0.000, 0.000, 19:27:28.154
93, 0.00, 0.00, 81.09, 0.00, 0.000, 0.000, 0.000, 19:27:28.169
94, 0.00, 0.00, 374.19, 0.00, 0.000, 0.000, 0.000, 19:27:28.169
95, 0.00, 0.00, -477.88, 0.00, 0.000, 0.000, 0.000, 19:27:28.170
96, 0.00, 0.00, -249.81, 0.00, 0.000, 0.000, 0.000, 19:27:28.170
97, 0.00, 0.00, 471.54, 0.00, 0.000, 0.000, 0.000, 19:27:28.184
98, 0.00, 0.00, -215.95, 0.00, 0.000, 0.000, 0.000, 19:27:28.184
99, 0.00, 0.00, -503.71, 0.00, 0.000, 0.000, 0.000, 19:27:28.199
100, 0.00, 0.00, 405.33, 0.00, 0.000, 0.000, 0.000, 19:27:28.200
101, 0.00, 0.00, 59.28, 0.00, 0.000, 0.000, 0.000, 19:27:28.200
102, 0.00, 0.00, -607.70, 0.00, 0.000, 0.000, 0.000, 19:27:28.200
103, 0.00, 0.00, 95.73, 0.00, 0.000, 0.000, 0.000, 19:27:28.214
104, 0.00, 0.00, 372.62, 0.00, 0.000, 0.000, 0.000, 19:27:28.214
105, 0.00, 0.00, -469.17, 0.00, 0.000, 0.000, 0.000, 19:27:28.229
106, 0.00, 0.00, -268.07, 0.00, 0.000, 0.000, 0.000, 19:27:28.229
107, 0.00, 0.00, 455.18, 0.00, 0.000, 0.000, 0.000, 19:27:28.230
108, 0.00, 0.00, -225.61, 0.00, 0.000, 0.000, 0.000, 19:27:28.230
109, 0.00, 0.00, -440.52, 0.00, 0.000, 0.000, 0.000, 19:27:28.244
110, 0.00, 0.00, 328.69, 0.00, 0.000, 0.000, 0.000, 19:27:28.244
111, 0.00, 0.00, 119.51, 0.00, 0.000, 0.000, 0.000, 19:27:28.259
112, 0.00, 0.00, -537.16, 0.00, 0.000, 0.000, 0.000, 19:27:28.259
113, 0.00, 0.00, 144.54, 0.00, 0.000, 0.000, 0.000, 19:27:28.260
114, 0.00, 0.00, 344.79, 0.00, 0.000, 0.000, 0.000, 19:27:28.260
115, 0.00, 0.00, -450.41, 0.00, 0.000, 0.000, 0.000, 19:27:28.274
116, 0.00, 0.00, -301.35, 0.00, 0.000, 0.000, 0.000, 19:27:28.275
117, 0.00, 0.00, 503.37, 0.00, 0.000, 0.000, 0.000, 19:27:28.289
118, 0.00, 0.00, -204.47, 0.00, 0.000, 0.000, 0.000, 19:27:28.289
119, 0.00, 0.00, -454.70, 0.00, 0.000, 0.000, 0.000, 19:27:28.290
120, 0.00, 0.00, 431.78, 0.00, 0.000, 0.000, 0.000, 19:27:28.290
121, 0.00, 0.00, 147.85, 0.00, 0.000, 0.000, 0.000, 19:27:28.304
122, 0.00, 0.00, -561.84, 0.00, 0.000, 0.000, 0.000, 19:27:28.304
123, 0.00, 0.00, 66.54, 0.00, 0.000, 0.000, 0.000, 19:27:28.319
124, 0.00, 0.00, 383.67, 0.00, 0.000, 0.000, 0.000, 19:27:28.319
125, 0.00, 0.00, -495.63, 0.00, 0.000, 0.000, 0.000, 19:27:28.319
126, 0.00, 0.00, -237.99, 0.00, 0.000, 0.000, 0.000, 19:27:28.320
127, 0.00, 0.00, 381.69, 0.00, 0.000, 0.000, 0.000, 19:27:28.334
128, 0.00, 0.00, -217.20, 0.00, 0.000, 0.000, 0.000, 19:27:28.334
129, 0.00, 0.00, -493.42, 0.00, 0.000, 0.000, 0.000, 19:27:28.349
130, 0.00, 0.00, 362.78, 0.00, 0.000, 0.000, 0.000, 19:27:28.350
131, 0.00, 0.00, 103.70, 0.00, 0.000, 0.000, 0.000, 19:27:28.350
132, 0.00, 0.00, -615.26, 0.00, 0.000, 0.000, 0.000, 19:27:28.350
133, 0.00, 0.00, 54.13, 0.00, 0.000, 0.000, 0.000, 19:27:28.364
134, 0.00, 0.00, 357.76, 0.00, 0.000, 0.000, 0.000, 19:27:28.364
135, 0.00, 0.00, -475.36, 0.00, 0.000, 0.000, 0.000, 19:27:28.379
136, 0.00, 0.00, -278.38, 0.00, 0.000, 0.000, 0.000, 19:27:28.379
137, 0.00, 0.00, 456.98, 0.00, 0.000, 0.000, 0.000, 19:27:28.380
138, 0.00, 0.00, -207.48, 0.00, 0.000, 0.000, 0.000, 19:27:28.380
139, 0.00, 0.00, -573.34, 0.00, 0.000, 0.000, 0.000, 19:27:28.394
140, 0.00, 0.00, 399.66, 0.00, 0.000, 0.000, 0.000, 19:27:28.394
141, 0.00, 0.00, 115.94, 0.00, 0.000, 0.000, 0.000, 19:27:28.409
142, 0.00, 0.00, -576.71, 0.00, 0.000, 0.000, 0.000, 19:27:28.409
143, 0.00, 0.00, 53.00, 0.00, 0.000, 0.000, 0.000, 19:27:28.410
144, 0.00, 0.00, 396.74, 0.00, 0.000, 0.000, 0.000, 19:27:28.410
145, 0.00, 0.00, -475.40, 0.00, 0.000, 0.000, 0.000, 19:27:28.424
146, 0.00, 0.00, -117.06, 0.00, 0.000, 0.000, 0.000, 19:27:28.424
147, 0.00, 0.00, 543.52, 0.00, 0.000, 0.000, 0.000, 19:27:28.439
148, 0.00, 0.00, -15.21, 0.00, 0.000, 0.000, 0.000, 19:27:28.439
149, 0.00, 0.00, -174.12, 0.00, 0.000, 0.000, 0.000, 19:27:28.439
150, 0.00, 0.00, 626.95, 0.00, 0.000, 0.000, 0.000, 19:27:28.440
151, 0.00, 0.00, 271.93, 0.00, 0.000, 0.000, 0.000, 19:27:28.454
152, 0.00, 0.00, -506.43, 0.00, 0.000, 0.000, 0.000, 19:27:28.455
153, 0.00, 0.00, 19.82, 0.00, 0.000, 0.000, 0.000, 19:27:28.469
154, 0.00, 0.00, 26.32, 0.00, 0.000, 0.000, 0.000, 19:27:28.469
155, 0.00, 0.00, -689.28, 0.00, 0.000, 0.000, 0.000, 19:27:28.469
156, 0.00, 0.00, -289.38, 0.00, 0.000, 0.000, 0.000, 19:27:28.470
157, 0.00, 0.00, 385.84, 0.00, 0.000, 0.000, 0.000, 19:27:28.484
158, 0.00, 0.00, -247.62, 0.00, 0.000, 0.000, 0.000, 19:27:28.484
159, 0.00, 0.00, -574.66, 0.00, 0.000, 0.000, 0.000, 19:27:28.500
160, 0.00, 0.00, 355.49, 0.00, 0.000, 0.000, 0.000, 19:27:28.500
161, 0.00, 0.00, 106.18, 0.00, 0.000, 0.000, 0.000, 19:27:28.500
162, 0.00, 0.00, -643.89, 0.00, 0.000, 0.000, 0.000, 19:27:28.500
163, 0.00, 0.00, 105.91, 0.00, 0.000, 0.000, 0.000, 19:27:28.514
164, 0.00, 0.00, 351.68, 0.00, 0.000, 0.000, 0.000, 19:27:28.514
165, 0.00, 0.00, -474.50, 0.00, 0.000, 0.000, 0.000, 19:27:28.529
166, 0.00, 0.00, -276.10, 0.00, 0.000, 0.000, 0.000, 19:27:28.529
167, 0.00, 0.00, 465.05, 0.00, 0.000, 0.000, 0.000, 19:27:28.529
168, 0.00, 0.00, -171.01, 0.00, 0.000, 0.000, 0.000, 19:27:28.530
169, 0.00, 0.00, -531.76, 0.00, 0.000, 0.000, 0.000, 19:27:28.544
170, 0.00, 0.00, 298.64, 0.00, 0.000, 0.000, 0.000, 19:27:28.545
171, 0.00, 0.00, 155.38, 0.00, 0.000, 0.000, 0.000, 19:27:28.559
172, 0.00, 0.00, -613.91, 0.00, 0.000, 0.000, 0.000, 19:27:28.560
173, 0.00, 0.00, 100.67, 0.00, 0.000, 0.000, 0.000, 19:27:28.560
174, 0.00, 0.00, 341.08, 0.00, 0.000, 0.000, 0.000, 19:27:28.560
175, 0.00, 0.00, -469.65, 0.00, 0.000, 0.000, 0.000, 19:27:28.574
176, 0.00, 0.00, -252.57, 0.00, 0.000, 0.000, 0.000, 19:27:28.574
177, 0.00, 0.00, 444.52, 0.00, 0.000, 0.000, 0.000, 19:27:28.589
178, 0.00, 0.00, -228.74, 0.00, 0.000, 0.000, 0.000, 19:27:28.589
179, 0.00, 0.00, -429.82, 0.00, 0.000, 0.000, 0.000, 19:27:28.590
180, 0.00, 0.00, 301.23, 0.00, 0.000, 0.000, 0.000, 19:27:28.590
181, 0.00, 0.00, 200.14, 0.00, 0.000, 0.000, 0.000, 19:27:28.604
182, 0.00, 0.00, -519.64, 0.00, 0.000, 0.000, 0.000, 19:27:28.604
183, 0.00, 0.00, 121.18, 0.00, 0.000, 0.000, 0.000, 19:27:28.619
184, 0.00, 0.00, 334.46, 0.00, 0.000, 0.000, 0.000, 19:27:28.619
185, 0.00, 0.00, -451.28, 0.00, 0.000, 0.000, 0.000, 19:27:28.620
186, 0.00, 0.00, -218.83, 0.00, 0.000, 0.000, 0.000, 19:27:28.620
187, 0.00, 0.00, 486.22, 0.00, 0.000, 0.000, 0.000, 19:27:28.634
188, 0.00, 0.00, -168.36, 0.00, 0.000, 0.000, 0.000, 19:27:28.634
189, 0.00, 0.00, -447.88, 0.00, 0.000, 0.000, 0.000, 19:27:28.649
190, 0.00, 0.00, 407.29, 0.00, 0.000, 0.000, 0.000, 19:27:28.649
191, 0.00, 0.00, 176.84, 0.00, 0.000, 0.000, 0.000, 19:27:28.650
192, 0.00, 0.00, -565.59, 0.00, 0.000, 0.000, 0.000, 19:27:28.650
193, 0.00, 0.00, 70.95, 0.00, 0.000, 0.000, 0.000, 19:27:28.664
194, 0.00, 0.00, 407.63, 0.00, 0.000, 0.000, 0.000, 19:27:28.664
195, 0.00, 0.00, -444.59, 0.00, 0.000, 0.000, 0.000, 19:27:28.679
196, 0.00, 0.00, -212.60, 0.00, 0.000, 0.000, 0.000, 19:27:28.679
197, 0.00, 0.00, 554.62, 0.00, 0.000, 0.000, 0.000, 19:27:28.680
198, 0.00, 0.00, -137.60, 0.00, 0.000, 0.000, 0.000, 19:27:28.680
199, 0.00, 0.00, -486.51, 0.00, 0.000, 0.000, 0.000, 19:27:28.694
200, 0.00, 0.00, 434.99, 0.00, 0.000, 0.000, 0.000, 19:27:28.694
0, 0.00, 0.00, 181.68, 0.00, 0.000, 0.000, 0.000, 19:27:28.695
1, 0.00, 0.00, -485.41, 0.00, 0.000, 0.000, 0.000, 19:27:28.709
2, 0.00, 0.00, 40.04, 0.00, 0.000, 0.000, 0.000, 19:27:28.709
3, 0.00, 0.00, 398.46, 0.00, 0.000, 0.000, 0.000, 19:27:28.724
4, 0.00, 0.00, -441.76, 0.00, 0.000, 0.000, 0.000, 19:27:28.724
5, 0.00, 0.00, -245.52, 0.00, 0.000, 0.000, 0.000, 19:27:28.725
6, 0.00, 0.00, 484.81, 0.00, 0.000, 0.000, 0.000, 19:27:28.725
7, 0.00, 0.00, -190.70, 0.00, 0.000, 0.000, 0.000, 19:27:28.739
8, 0.00, 0.00, -530.17, 0.00, 0.000, 0.000, 0.000, 19:27:28.739
9, 0.00, 0.00, 248.25, 0.00, 0.000, 0.000, 0.000, 19:27:28.754
10, 0.00, 0.00, 83.04, 0.00, 0.000, 0.000, 0.000, 19:27:28.754
11, 0.00, 0.00, -703.05, 0.00, 0.000, 0.000, 0.000, 19:27:28.755
12, 0.00, 0.00, 2.68, 0.00, 0.000, 0.000, 0.000, 19:27:28.755
13, 0.00, 0.00, 317.28, 0.00, 0.000, 0.000, 0.000, 19:27:28.769
14, 0.00, 0.00, -521.03, 0.00, 0.000, 0.000, 0.000, 19:27:28.769
15, 0.00, 0.00, -330.41, 0.00, 0.000, 0.000, 0.000, 19:27:28.784
16, 0.00, 0.00, 499.07, 0.00, 0.000, 0.000, 0.000, 19:27:28.784
17, 0.00, 0.00, -250.73, 0.00, 0.000, 0.000, 0.000, 19:27:28.784
18, 0.00, 0.00, -519.83, 0.00, 0.000, 0.000, 0.000, 19:27:28.784
19, 0.00, 0.00, 276.39, 0.00, 0.000, 0.000, 0.000, 19:27:28.800
20, 0.00, 0.00, 168.93, 0.00, 0.000, 0.000, 0.000, 19:27:28.800
21, 0.00, 0.00, -582.26, 0.00, 0.000, 0.000, 0.000, 19:27:28.814
22, 0.00, 0.00, -10.78, 0.00, 0.000, 0.000, 0.000, 19:27:28.814
23, 0.00, 0.00, 359.80, 0.00, 0.000, 0.000, 0.000, 19:27:28.814
24, 0.00, 0.00, -431.52, 0.00, 0.000, 0.000, 0.000, 19:27:28.815
25, 0.00, 0.00, -319.33, 0.00, 0.000, 0.000, 0.000, 19:27:28.829
26, 0.00, 0.00, 540.76, 0.00, 0.000, 0.000, 0.000, 19:27:28.829
27, 0.00, 0.00, -227.03, 0.00, 0.000, 0.000, 0.000, 19:27:28.844
28, 0.00, 0.00, -510.77, 0.00, 0.000, 0.000, 0.000, 19:27:28.844
29, 0.00, 0.00, 287.21, 0.00, 0.000, 0.000, 0.000, 19:27:28.844
30, 0.00, 0.00, 131.68, 0.00, 0.000, 0.000, 0.000, 19:27:28.845
31, 0.00, 0.00, -618.94, 0.00, 0.000, 0.000, 0.000, 19:27:28.859
32, 0.00, 0.00, 84.43, 0.00, 0.000, 0.000, 0.000, 19:27:28.859
33, 0.00, 0.00, 351.50, 0.00, 0.000, 0.000, 0.000, 19:27:28.874
34, 0.00, 0.00, -428.51, 0.00, 0.000, 0.000, 0.000, 19:27:28.875
35, 0.00, 0.00, -239.00, 0.00, 0.000, 0.000, 0.000, 19:27:28.875
36, 0.00, 0.00, 574.70, 0.00, 0.000, 0.000, 0.000, 19:27:28.875
37, 0.00, 0.00, -197.89, 0.00, 0.000, 0.000, 0.000, 19:27:28.889
38, 0.00, 0.00, -537.78, 0.00, 0.000, 0.000, 0.000, 19:27:28.889
39, 0.00, 0.00, 320.05, 0.00, 0.000, 0.000, 0.000, 19:27:28.904
40, 0.00, 0.00, 178.26, 0.00, 0.000, 0.000, 0.000, 19:27:28.904
41, 0.00, 0.00, -573.34, 0.00, 0.000, 0.000, 0.000, 19:27:28.904
42, 0.00, 0.00, 9.01, 0.00, 0.000, 0.000, 0.000, 19:27:28.905
43, 0.00, 0.00, 385.99, 0.00, 0.000, 0.000, 0.000, 19:27:28.919
44, 0.00, 0.00, -480.44, 0.00, 0.000, 0.000, 0.000, 19:27:28.919
45, 0.00, 0.00, -334.13, 0.00, 0.000, 0.000, 0.000, 19:27:28.934
46, 0.00, 0.00, 465.54, 0.00, 0.000, 0.000, 0.000, 19:27:28.934
47, 0.00, 0.00, -91.32, 0.00, 0.000, 0.000, 0.000, 19:27:28.934
48, 0.00, 0.00, -513.82, 0.00, 0.000, 0.000, 0.000, 19:27:28.934
49, 0.00, 0.00, 274.05, 0.00, 0.000, 0.000, 0.000, 19:27:28.949
50, 0.00, 0.00, 150.86, 0.00, 0.000, 0.000, 0.000, 19:27:28.949
51, 0.00, 0.00, -542.99, 0.00, 0.000, 0.000, 0.000, 19:27:28.964
52, 0.00, 0.00, 0.43, 0.00, 0.000, 0.000, 0.000, 19:27:28.964
53, 0.00, 0.00, 388.61, 0.00, 0.000, 0.000, 0.000, 19:27:28.964
54, 0.00, 0.00, -432.40, 0.00, 0.000, 0.000, 0.000, 19:27:28.965
55, 0.00, 0.00, -289.33, 0.00, 0.000, 0.000, 0.000, 19:27:28.979
56, 0.00, 0.00, 462.94, 0.00, 0.000, 0.000, 0.000, 19:27:28.979
57, 0.00, 0.00, -165.35, 0.00, 0.000, 0.000, 0.000, 19:27:28.994
58, 0.00, 0.00, -550.60, 0.00, 0.000, 0.000, 0.000, 19:27:28.994
59, 0.00, 0.00, 347.36, 0.00, 0.000, 0.000, 0.000, 19:27:28.994
60, 0.00, 0.00, 164.70, 0.00, 0.000, 0.000, 0.000, 19:27:28.995
61, 0.00, 0.00, -630.45, 0.00, 0.000, 0.000, 0.000, 19:27:29.009
62, 0.00, 0.00, 52.22, 0.00, 0.000, 0.000, 0.000, 19:27:29.009
63, 0.00, 0.00, 381.42, 0.00, 0.000, 0.000, 0.000, 19:27:29.024
64, 0.00, 0.00, -408.26, 0.00, 0.000, 0.000, 0.000, 19:27:29.024
65, 0.00, 0.00, -233.99, 0.00, 0.000, 0.000, 0.000, 19:27:29.024
66, 0.00, 0.00, 359.24, 0.00, 0.000, 0.000, 0.000, 19:27:29.025
67, 0.00, 0.00, -126.37, 0.00, 0.000, 0.000, 0.000, 19:27:29.039
68, 0.00, 0.00, -576.40, 0.00, 0.000, 0.000, 0.000, 19:27:29.039
69, 0.00, 0.00, 310.51, 0.00, 0.000, 0.000, 0.000, 19:27:29.054
70, 0.00, 0.00, 145.42, 0.00, 0.000, 0.000, 0.000, 19:27:29.054
71, 0.00, 0.00, -516.36, 0.00, 0.000, 0.000, 0.000, 19:27:29.055
72, 0.00, 0.00, -30.84, 0.00, 0.000, 0.000, 0.000, 19:27:29.055
73, 0.00, 0.00, 404.26, 0.00, 0.000, 0.000, 0.000, 19:27:29.069
74, 0.00, 0.00, -437.85, 0.00, 0.000, 0.000, 0.000, 19:27:29.069
75, 0.00, 0.00, -285.59, 0.00, 0.000, 0.000, 0.000, 19:27:29.085
76, 0.00, 0.00, 527.52, 0.00, 0.000, 0.000, 0.000, 19:27:29.085
77, 0.00, 0.00, -207.63, 0.00, 0.000, 0.000, 0.000, 19:27:29.085
78, 0.00, 0.00, -535.50, 0.00, 0.000, 0.000, 0.000, 19:27:29.086
79, 0.00, 0.00, 234.34, 0.00, 0.000, 0.000, 0.000, 19:27:29.099
80, 0.00, 0.00, 261.36, 0.00, 0.000, 0.000, 0.000, 19:27:29.099
81, 0.00, 0.00, -598.28, 0.00, 0.000, 0.000, 0.000, 19:27:29.114
82, 0.00, 0.00, -32.54, 0.00, 0.000, 0.000, 0.000, 19:27:29.114
83, 0.00, 0.00, 420.38, 0.00, 0.000, 0.000, 0.000, 19:27:29.115
84, 0.00, 0.00, -410.77, 0.00, 0.000, 0.000, 0.000, 19:27:29.115
85, 0.00, 0.00, -289.46, 0.00, 0.000, 0.000, 0.000, 19:27:29.129
86, 0.00, 0.00, 464.03, 0.00, 0.000, 0.000, 0.000, 19:27:29.129
87, 0.00, 0.00, -119.37, 0.00, 0.000, 0.000, 0.000, 19:27:29.144
88, 0.00, 0.00, -456.45, 0.00, 0.000, 0.000, 0.000, 19:27:29.144
89, 0.00, 0.00, 296.73, 0.00, 0.000, 0.000, 0.000, 19:27:29.144
90, 0.00, 0.00, 212.68, 0.00, 0.000, 0.000, 0.000, 19:27:29.145
91, 0.00, 0.00, -555.29, 0.00, 0.000, 0.000, 0.000, 19:27:29.159
92, 0.00, 0.00, -8.74, 0.00, 0.000, 0.000, 0.000, 19:27:29.159
93, 0.00, 0.00, 365.80, 0.00, 0.000, 0.000, 0.000, 19:27:29.174
94, 0.00, 0.00, -412.48, 0.00, 0.000, 0.000, 0.000, 19:27:29.174
95, 0.00, 0.00, -368.07, 0.00, 0.000, 0.000, 0.000, 19:27:29.174
96, 0.00, 0.00, 385.77, 0.00, 0.000, 0.000, 0.000, 19:27:29.175
97, 0.00, 0.00, -120.03, 0.00, 0.000, 0.000, 0.000, 19:27:29.189
98, 0.00, 0.00, -584.13, 0.00, 0.000, 0.000, 0.000, 19:27:29.189
99, 0.00, 0.00, 283.47, 0.00, 0.000, 0.000, 0.000, 19:27:29.204
100, 0.00, 0.00, 201.63, 0.00, 0.000, 0.000, 0.000, 19:27:29.204
101, 0.00, 0.00, -605.33, 0.00, 0.000, 0.000, 0.000, 19:27:29.204
102, 0.00, 0.00, -11.99, 0.00, 0.000, 0.000, 0.000, 19:27:29.205
103, 0.00, 0.00, 388.15, 0.00, 0.000, 0.000, 0.000, 19:27:29.219
104, 0.00, 0.00, -444.82, 0.00, 0.000, 0.000, 0.000, 19:27:29.219
105, 0.00, 0.00, -326.32, 0.00, 0.000, 0.000, 0.000, 19:27:29.234
106, 0.00, 0.00, 436.31, 0.00, 0.000, 0.000, 0.000, 19:27:29.235
107, 0.00, 0.00, -148.09, 0.00, 0.000, 0.000, 0.000, 19:27:29.235
108, 0.00, 0.00, -558.70, 0.00, 0.000, 0.000, 0.000, 19:27:29.235
109, 0.00, 0.00, 308.37, 0.00, 0.000, 0.000, 0.000, 19:27:29.249
110, 0.00, 0.00, 267.67, 0.00, 0.000, 0.000, 0.000, 19:27:29.249
111, 0.00, 0.00, -609.25, 0.00, 0.000, 0.000, 0.000, 19:27:29.264
112, 0.00, 0.00, -11.73, 0.00, 0.000, 0.000, 0.000, 19:27:29.264
113, 0.00, 0.00, 452.57, 0.00, 0.000, 0.000, 0.000, 19:27:29.265
114, 0.00, 0.00, -320.82, 0.00, 0.000, 0.000, 0.000, 19:27:29.265
115, 0.00, 0.00, -190.93, 0.00, 0.000, 0.000, 0.000, 19:27:29.279
116, 0.00, 0.00, 769.58, 0.00, 0.000, 0.000, 0.000, 19:27:29.279
117, 0.00, 0.00, 115.86, 0.00, 0.000, 0.000, 0.000, 19:27:29.294
118, 0.00, 0.00, -344.79, 0.00, 0.000, 0.000, 0.000, 19:27:29.294
119, 0.00, 0.00, 467.50, 0.00, 0.000, 0.000, 0.000, 19:27:29.295
120, 0.00, 0.00, 160.00, 0.00, 0.000, 0.000, 0.000, 19:27:29.295
121, 0.00, 0.00, -758.17, 0.00, 0.000, 0.000, 0.000, 19:27:29.309
122, 0.00, 0.00, -317.38, 0.00, 0.000, 0.000, 0.000, 19:27:29.309
123, 0.00, 0.00, 266.30, 0.00, 0.000, 0.000, 0.000, 19:27:29.324
124, 0.00, 0.00, -447.68, 0.00, 0.000, 0.000, 0.000, 19:27:29.324
125, 0.00, 0.00, -429.28, 0.00, 0.000, 0.000, 0.000, 19:27:29.324
126, 0.00, 0.00, 420.11, 0.00, 0.000, 0.000, 0.000, 19:27:29.325
127, 0.00, 0.00, -185.71, 0.00, 0.000, 0.000, 0.000, 19:27:29.339
128, 0.00, 0.00, -604.68, 0.00, 0.000, 0.000, 0.000, 19:27:29.340
129, 0.00, 0.00, 234.34, 0.00, 0.000, 0.000, 0.000, 19:27:29.354
130, 0.00, 0.00, 130.37, 0.00, 0.000, 0.000, 0.000, 19:27:29.354
131, 0.00, 0.00, -577.06, 0.00, 0.000, 0.000, 0.000, 19:27:29.354
132, 0.00, 0.00, -49.53, 0.00, 0.000, 0.000, 0.000, 19:27:29.355
133, 0.00, 0.00, 419.14, 0.00, 0.000, 0.000, 0.000, 19:27:29.369
134, 0.00, 0.00, -480.53, 0.00, 0.000, 0.000, 0.000, 19:27:29.369
135, 0.00, 0.00, -319.78, 0.00, 0.000, 0.000, 0.000, 19:27:29.384
136, 0.00, 0.00, 407.92, 0.00, 0.000, 0.000, 0.000, 19:27:29.384
137, 0.00, 0.00, -91.98, 0.00, 0.000, 0.000, 0.000, 19:27:29.385
138, 0.00, 0.00, -556.54, 0.00, 0.000, 0.000, 0.000, 19:27:29.385
139, 0.00, 0.00, 265.84, 0.00, 0.000, 0.000, 0.000, 19:27:29.399
140, 0.00, 0.00, 146.27, 0.00, 0.000, 0.000, 0.000, 19:27:29.399
141, 0.00, 0.00, -491.91, 0.00, 0.000, 0.000, 0.000, 19:27:29.414
142, 0.00, 0.00, -55.23, 0.00, 0.000, 0.000, 0.000, 19:27:29.414
143, 0.00, 0.00, 387.27, 0.00, 0.000, 0.000, 0.000, 19:27:29.414
144, 0.00, 0.00, -423.88, 0.00, 0.000, 0.000, 0.000, 19:27:29.415
145, 0.00, 0.00, -328.38, 0.00, 0.000, 0.000, 0.000, 19:27:29.429
146, 0.00, 0.00, 421.22, 0.00, 0.000, 0.000, 0.000, 19:27:29.429
147, 0.00, 0.00, -111.25, 0.00, 0.000, 0.000, 0.000, 19:27:29.444
148, 0.00, 0.00, -609.79, 0.00, 0.000, 0.000, 0.000, 19:27:29.444
149, 0.00, 0.00, 259.02, 0.00, 0.000, 0.000, 0.000, 19:27:29.445
150, 0.00, 0.00, 235.91, 0.00, 0.000, 0.000, 0.000, 19:27:29.445
151, 0.00, 0.00, -472.56, 0.00, 0.000, 0.000, 0.000, 19:27:29.459
152, 0.00, 0.00, -4.84, 0.00, 0.000, 0.000, 0.000, 19:27:29.459
153, 0.00, 0.00, 472.56, 0.00, 0.000, 0.000, 0.000, 19:27:29.475
154, 0.00, 0.00, -409.52, 0.00, 0.000, 0.000, 0.000, 19:27:29.475
155, 0.00, 0.00, -356.24, 0.00, 0.000, 0.000, 0.000, 19:27:29.475
156, 0.00, 0.00, 450.14, 0.00, 0.000, 0.000, 0.000, 19:27:29.475
157, 0.00, 0.00, -74.67, 0.00, 0.000, 0.000, 0.000, 19:27:29.489
158, 0.00, 0.00, -523.23, 0.00, 0.000, 0.000, 0.000, 19:27:29.489
159, 0.00, 0.00, 329.01, 0.00, 0.000, 0.000, 0.000, 19:27:29.504
160, 0.00, 0.00, 278.63, 0.00, 0.000, 0.000, 0.000, 19:27:29.504
161, 0.00, 0.00, -603.43, 0.00, 0.000, 0.000, 0.000, 19:27:29.505
162, 0.00, 0.00, -15.79, 0.00, 0.000, 0.000, 0.000, 19:27:29.505
163, 0.00, 0.00, 438.62, 0.00, 0.000, 0.000, 0.000, 19:27:29.519
164, 0.00, 0.00, -331.01, 0.00, 0.000, 0.000, 0.000, 19:27:29.519
165, 0.00, 0.00, -366.63, 0.00, 0.000, 0.000, 0.000, 19:27:29.534
166, 0.00, 0.00, 530.12, 0.00, 0.000, 0.000, 0.000, 19:27:29.534
167, 0.00, 0.00, -48.53, 0.00, 0.000, 0.000, 0.000, 19:27:29.534
168, 0.00, 0.00, -504.03, 0.00, 0.000, 0.000, 0.000, 19:27:29.535
169, 0.00, 0.00, 239.52, 0.00, 0.000, 0.000, 0.000, 19:27:29.549
170, 0.00, 0.00, 289.09, 0.00, 0.000, 0.000, 0.000, 19:27:29.549
171, 0.00, 0.00, -546.85, 0.00, 0.000, 0.000, 0.000, 19:27:29.564
172, 0.00, 0.00, -20.74, 0.00, 0.000, 0.000, 0.000, 19:27:29.564
173, 0.00, 0.00, 368.37, 0.00, 0.000, 0.000, 0.000, 19:27:29.564
174, 0.00, 0.00, -364.40, 0.00, 0.000, 0.000, 0.000, 19:27:29.565
175, 0.00, 0.00, -376.72, 0.00, 0.000, 0.000, 0.000, 19:27:29.579
176, 0.00, 0.00, 415.48, 0.00, 0.000, 0.000, 0.000, 19:27:29.579
177, 0.00, 0.00, -133.37, 0.00, 0.000, 0.000, 0.000, 19:27:29.594
178, 0.00, 0.00, -571.49, 0.00, 0.000, 0.000, 0.000, 19:27:29.594
179, 0.00, 0.00, 205.58, 0.00, 0.000, 0.000, 0.000, 19:27:29.595
180, 0.00, 0.00, 137.65, 0.00, 0.000, 0.000, 0.000, 19:27:29.595
181, 0.00, 0.00, -610.48, 0.00, 0.000, 0.000, 0.000, 19:27:29.609
182, 0.00, 0.00, -73.41, 0.00, 0.000, 0.000, 0.000, 19:27:29.609
183, 0.00, 0.00, 361.77, 0.00, 0.000, 0.000, 0.000, 19:27:29.624
184, 0.00, 0.00, -475.59, 0.00, 0.000, 0.000, 0.000, 19:27:29.624
185, 0.00, 0.00, -396.46, 0.00, 0.000, 0.000, 0.000, 19:27:29.624
186, 0.00, 0.00, 409.29, 0.00, 0.000, 0.000, 0.000, 19:27:29.625
187, 0.00, 0.00, -135.68, 0.00, 0.000, 0.000, 0.000, 19:27:29.639
188, 0.00, 0.00, -525.29, 0.00, 0.000, 0.000, 0.000, 19:27:29.639
189, 0.00, 0.00, 192.37, 0.00, 0.000, 0.000, 0.000, 19:27:29.654
190, 0.00, 0.00, 239.53, 0.00, 0.000, 0.000, 0.000, 19:27:29.654
191, 0.00, 0.00, -634.51, 0.00, 0.000, 0.000, 0.000, 19:27:29.654
192, 0.00, 0.00, -63.60, 0.00, 0.000, 0.000, 0.000, 19:27:29.655
193, 0.00, 0.00, 444.74, 0.00, 0.000, 0.000, 0.000, 19:27:29.669
194, 0.00, 0.00, -446.70, 0.00, 0.000, 0.000, 0.000, 19:27:29.669
195, 0.00, 0.00, -383.23, 0.00, 0.000, 0.000, 0.000, 19:27:29.684
196, 0.00, 0.00, 468.46, 0.00, 0.000, 0.000, 0.000, 19:27:29.684
197, 0.00, 0.00, -95.13, 0.00, 0.000, 0.000, 0.000, 19:27:29.685
198, 0.00, 0.00, -544.13, 0.00, 0.000, 0.000, 0.000, 19:27:29.685
199, 0.00, 0.00, 218.93, 0.00, 0.000, 0.000, 0.000, 19:27:29.699
200, 0.00, 0.00, 178.27, 0.00, 0.000, 0.000, 0.000, 19:27:29.699
0, 0.00, 0.00, -544.45, 0.00, 0.000, 0.000, 0.000, 19:27:29.699
1, 0.00, 0.00, -98.92, 0.00, 0.000, 0.000, 0.000, 19:27:29.714
2, 0.00, 0.00, 431.33, 0.00, 0.000, 0.000, 0.000, 19:27:29.714
3, 0.00, 0.00, -336.30, 0.00, 0.000, 0.000, 0.000, 19:27:29.729
4, 0.00, 0.00, -328.82, 0.00, 0.000, 0.000, 0.000, 19:27:29.730
5, 0.00, 0.00, 391.16, 0.00, 0.000, 0.000, 0.000, 19:27:29.730
6, 0.00, 0.00, -68.90, 0.00, 0.000, 0.000, 0.000, 19:27:29.730
7, 0.00, 0.00, -555.25, 0.00, 0.000, 0.000, 0.000, 19:27:29.744
8, 0.00, 0.00, 274.13, 0.00, 0.000, 0.000, 0.000, 19:27:29.744
9, 0.00, 0.00, 237.03, 0.00, 0.000, 0.000, 0.000, 19:27:29.759
10, 0.00, 0.00, -597.63, 0.00, 0.000, 0.000, 0.000, 19:27:29.759
11, 0.00, 0.00, -46.17, 0.00, 0.000, 0.000, 0.000, 19:27:29.759
12, 0.00, 0.00, 511.01, 0.00, 0.000, 0.000, 0.000, 19:27:29.760
13, 0.00, 0.00, 499.88, 0.00, 0.000, 0.000, 0.000, 19:27:29.774
14, 0.00, 0.00, 648.01, 0.00, 0.000, 0.000, 0.000, 19:27:29.774
15, 0.00, 0.00, 1401.08, 0.00, 0.000, 0.000, 0.000, 19:27:29.789
16, 0.00, 0.00, 944.22, 0.00, 0.000, 0.000, 0.000, 19:27:29.789
17, 0.00, 0.00, 392.52, 0.00, 0.000, 0.000, 0.000, 19:27:29.790
18, 0.00, 0.00, 1195.81, 0.00, 0.000, 0.000, 0.000, 19:27:29.790
19, 0.00, 0.00, 1195.41, 0.00, 0.000, 0.000, 0.000, 19:27:29.804
20, 0.00, 0.00, 420.62, 0.00, 0.000, 0.000, 0.000, 19:27:29.804
21, 0.00, 0.00, 947.74, 0.00, 0.000, 0.000, 0.000, 19:27:29.819
22, 0.00, 0.00, 1439.86, 0.00, 0.000, 0.000, 0.000, 19:27:29.819
23, 0.00, 0.00, 589.86, 0.00, 0.000, 0.000, 0.000, 19:27:29.819
24, 0.00, 0.00, 558.30, 0.00, 0.000, 0.000, 0.000, 19:27:29.819
25, 0.00, 0.00, 1432.94, 0.00, 0.000, 0.000, 0.000, 19:27:29.834
26, 0.00, 0.00, 883.59, 0.00, 0.000, 0.000, 0.000, 19:27:29.834
27, 0.00, 0.00, 476.78, 0.00, 0.000, 0.000, 0.000, 19:27:29.849
28, 0.00, 0.00, 1214.41, 0.00, 0.000, 0.000, 0.000, 19:27:29.849
29, 0.00, 0.00, 1219.36, 0.00, 0.000, 0.000, 0.000, 19:27:29.849
30, 0.00, 0.00, 359.81, 0.00, 0.000, 0.000, 0.000, 19:27:29.849
31, 0.00, 0.00, 921.05, 0.00, 0.000, 0.000, 0.000, 19:27:29.864
32, 0.00, 0.00, 1449.18, 0.00, 0.000, 0.000, 0.000, 19:27:29.864
33, 0.00, 0.00, 614.29, 0.00, 0.000, 0.000, 0.000, 19:27:29.879
34, 0.00, 0.00, 571.17, 0.00, 0.000, 0.000, 0.000, 19:27:29.879
35, 0.00, 0.00, 1388.99, 0.00, 0.000, 0.000, 0.000, 19:27:29.879
36, 0.00, 0.00, 917.75, 0.00, 0.000, 0.000, 0.000, 19:27:29.880
37, 0.00, 0.00, 409.33, 0.00, 0.000, 0.000, 0.000, 19:27:29.894
38, 0.00, 0.00, 1206.06, 0.00, 0.000, 0.000, 0.000, 19:27:29.894
39, 0.00, 0.00, 1214.29, 0.00, 0.000, 0.000, 0.000, 19:27:29.909
40, 0.00, 0.00, 411.63, 0.00, 0.000, 0.000, 0.000, 19:27:29.909
41, 0.00, 0.00, 939.92, 0.00, 0.000, 0.000, 0.000, 19:27:29.910
42, 0.00, 0.00, 1383.15, 0.00, 0.000, 0.000, 0.000, 19:27:29.910
43, 0.00, 0.00, 633.82, 0.00, 0.000, 0.000, 0.000, 19:27:29.924
44, 0.00, 0.00, 582.74, 0.00, 0.000, 0.000, 0.000, 19:27:29.924
45, 0.00, 0.00, 1360.68, 0.00, 0.000, 0.000, 0.000, 19:27:29.939
46, 0.00, 0.00, 1013.07, 0.00, 0.000, 0.000, 0.000, 19:27:29.939
47, 0.00, 0.00, 358.18, 0.00, 0.000, 0.000, 0.000, 19:27:29.939
48, 0.00, 0.00, 1299.30, 0.00, 0.000, 0.000, 0.000, 19:27:29.940
49, 0.00, 0.00, 1239.70, 0.00, 0.000, 0.000, 0.000, 19:27:29.954
50, 0.00, 0.00, 431.21, 0.00, 0.000, 0.000, 0.000, 19:27:29.954
51, 0.00, 0.00, 863.20, 0.00, 0.000, 0.000, 0.000, 19:27:29.969
52, 0.00, 0.00, 1389.73, 0.00, 0.000, 0.000, 0.000, 19:27:29.969
53, 0.00, 0.00, 693.67, 0.00, 0.000, 0.000, 0.000, 19:27:29.969
54, 0.00, 0.00, 591.32, 0.00, 0.000, 0.000, 0.000, 19:27:29.970
55, 0.00, 0.00, 1455.29, 0.00, 0.000, 0.000, 0.000, 19:27:29.984
56, 0.00, 0.00, 946.88, 0.00, 0.000, 0.000, 0.000, 19:27:29.984
57, 0.00, 0.00, 439.83, 0.00, 0.000, 0.000, 0.000, 19:27:29.999
58, 0.00, 0.00, 1188.92, 0.00, 0.000, 0.000, 0.000, 19:27:29.999
59, 0.00, 0.00, 1229.46, 0.00, 0.000, 0.000, 0.000, 19:27:29.999
60, 0.00, 0.00, 405.21, 0.00, 0.000, 0.000, 0.000, 19:27:30.000
61, 0.00, 0.00, 822.22, 0.00, 0.000, 0.000, 0.000, 19:27:30.014
62, 0.00, 0.00, 1408.96, 0.00, 0.000, 0.000, 0.000, 19:27:30.014
63, 0.00, 0.00, 559.54, 0.00, 0.000, 0.000, 0.000, 19:27:30.029
64, 0.00, 0.00, 632.22, 0.00, 0.000, 0.000, 0.000, 19:27:30.029
65, 0.00, 0.00, 1383.14, 0.00, 0.000, 0.000, 0.000, 19:27:30.029
66, 0.00, 0.00, 899.41, 0.00, 0.000, 0.000, 0.000, 19:27:30.030
67, 0.00, 0.00, 443.40, 0.00, 0.000, 0.000, 0.000, 19:27:30.044
68, 0.00, 0.00, 1200.87, 0.00, 0.000, 0.000, 0.000, 19:27:30.044
69, 0.00, 0.00, 1245.91, 0.00, 0.000, 0.000, 0.000, 19:27:30.059
70, 0.00, 0.00, 439.68, 0.00, 0.000, 0.000, 0.000, 19:27:30.059
71, 0.00, 0.00, 792.18, 0.00, 0.000, 0.000, 0.000, 19:27:30.059
72, 0.00, 0.00, 1400.93, 0.00, 0.000, 0.000, 0.000, 19:27:30.060
73, 0.00, 0.00, 580.28, 0.00, 0.000, 0.000, 0.000, 19:27:30.074
74, 0.00, 0.00, 585.80, 0.00, 0.000, 0.000, 0.000, 19:27:30.074
75, 0.00, 0.00, 1403.06, 0.00, 0.000, 0.000, 0.000, 19:27:30.089
76, 0.00, 0.00, 910.53, 0.00, 0.000, 0.000, 0.000, 19:27:30.089
77, 0.00, 0.00, 397.24, 0.00, 0.000, 0.000, 0.000, 19:27:30.089
78, 0.00, 0.00, 1208.70, 0.00, 0.000, 0.000, 0.000, 19:27:30.090
79, 0.00, 0.00, 1332.63, 0.00, 0.000, 0.000, 0.000, 19:27:30.104
80, 0.00, 0.00, 456.71, 0.00, 0.000, 0.000, 0.000, 19:27:30.104
81, 0.00, 0.00, 1052.52, 0.00, 0.000, 0.000, 0.000, 19:27:30.119
82, 0.00, 0.00, 1640.02, 0.00, 0.000, 0.000, 0.000, 19:27:30.119
83, 0.00, 0.00, 942.31, 0.00, 0.000, 0.000, 0.000, 19:27:30.120
84, 0.00, 0.00, 735.42, 0.00, 0.000, 0.000, 0.000, 19:27:30.120
85, 0.00, 0.00, 1629.09, 0.00, 0.000, 0.000, 0.000, 19:27:30.134
86, 0.00, 0.00, 1076.86, 0.00, 0.000, 0.000, 0.000, 19:27:30.134
87, 0.00, 0.00, 307.84, 0.00, 0.000, 0.000, 0.000, 19:27:30.149
88, 0.00, 0.00, 960.61, 0.00, 0.000, 0.000, 0.000, 19:27:30.149
89, 0.00, 0.00, 986.35, 0.00, 0.000, 0.000, 0.000, 19:27:30.150
90, 0.00, 0.00, 361.56, 0.00, 0.000, 0.000, 0.000, 19:27:30.150
91, 0.00, 0.00, 812.73, 0.00, 0.000, 0.000, 0.000, 19:27:30.164
92, 0.00, 0.00, 1303.55, 0.00, 0.000, 0.000, 0.000, 19:27:30.164
93, 0.00, 0.00, 591.93, 0.00, 0.000, 0.000, 0.000, 19:27:30.179
94, 0.00, 0.00, 550.63, 0.00, 0.000, 0.000, 0.000, 19:27:30.179
95, 0.00, 0.00, 1328.84, 0.00, 0.000, 0.000, 0.000, 19:27:30.179
96, 0.00, 0.00, 909.88, 0.00, 0.000, 0.000, 0.000, 19:27:30.179
97, 0.00, 0.00, 371.55, 0.00, 0.000, 0.000, 0.000, 19:27:30.194
98, 0.00, 0.00, 1131.24, 0.00, 0.000, 0.000, 0.000, 19:27:30.194
99, 0.00, 0.00, 1193.35, 0.00, 0.000, 0.000, 0.000, 19:27:30.209
100, 0.00, 0.00, 365.15, 0.00, 0.000, 0.000, 0.000, 19:27:30.209
101, 0.00, 0.00, 923.69, 0.00, 0.000, 0.000, 0.000, 19:27:30.209
102, 0.00, 0.00, 1361.69, 0.00, 0.000, 0.000, 0.000, 19:27:30.210
103, 0.00, 0.00, 662.52, 0.00, 0.000, 0.000, 0.000, 19:27:30.224
104, 0.00, 0.00, 549.33, 0.00, 0.000, 0.000, 0.000, 19:27:30.224
105, 0.00, 0.00, 1409.13, 0.00, 0.000, 0.000, 0.000, 19:27:30.243
106, 0.00, 0.00, 930.37, 0.00, 0.000, 0.000, 0.000, 19:27:30.243
107, 0.00, 0.00, 434.42, 0.00, 0.000, 0.000, 0.000, 19:27:30.243
108, 0.00, 0.00, 1186.35, 0.00, 0.000, 0.000, 0.000, 19:27:30.243
109, 0.00, 0.00, 1273.94, 0.00, 0.000, 0.000, 0.000, 19:27:30.254
110, 0.00, 0.00, 417.92, 0.00, 0.000, 0.000, 0.000, 19:27:30.254
111, 0.00, 0.00, 882.98, 0.00, 0.000, 0.000, 0.000, 19:27:30.269
112, 0.00, 0.00, 1420.58, 0.00, 0.000, 0.000, 0.000, 19:27:30.269
113, 0.00, 0.00, 655.38, 0.00, 0.000, 0.000, 0.000, 19:27:30.270
114, 0.00, 0.00, 635.11, 0.00, 0.000, 0.000, 0.000, 19:27:30.270
115, 0.00, 0.00, 1372.88, 0.00, 0.000, 0.000, 0.000, 19:27:30.284
116, 0.00, 0.00, 931.54, 0.00, 0.000, 0.000, 0.000, 19:27:30.284
117, 0.00, 0.00, 406.73, 0.00, 0.000, 0.000, 0.000, 19:27:30.299
118, 0.00, 0.00, 1184.88, 0.00, 0.000, 0.000, 0.000, 19:27:30.299
119, 0.00, 0.00, 1227.30, 0.00, 0.000, 0.000, 0.000, 19:27:30.300
120, 0.00, 0.00, 472.70, 0.00, 0.000, 0.000, 0.000, 19:27:30.300
121, 0.00, 0.00, 883.61, 0.00, 0.000, 0.000, 0.000, 19:27:30.314
122, 0.00, 0.00, 1524.82, 0.00, 0.000, 0.000, 0.000, 19:27:30.314
123, 0.00, 0.00, 632.41, 0.00, 0.000, 0.000, 0.000, 19:27:30.329
124, 0.00, 0.00, 615.39, 0.00, 0.000, 0.000, 0.000, 19:27:30.329
125, 0.00, 0.00, 1411.35, 0.00, 0.000, 0.000, 0.000, 19:27:30.330
126, 0.00, 0.00, 1054.49, 0.00, 0.000, 0.000, 0.000, 19:27:30.330
127, 0.00, 0.00, 427.72, 0.00, 0.000, 0.000, 0.000, 19:27:30.344
128, 0.00, 0.00, 1210.54, 0.00, 0.000, 0.000, 0.000, 19:27:30.344
129, 0.00, 0.00, 1297.44, 0.00, 0.000, 0.000, 0.000, 19:27:30.359
130, 0.00, 0.00, 455.48, 0.00, 0.000, 0.000, 0.000, 19:27:30.359
131, 0.00, 0.00, 900.53, 0.00, 0.000, 0.000, 0.000, 19:27:30.359
132, 0.00, 0.00, 1476.69, 0.00, 0.000, 0.000, 0.000, 19:27:30.360
133, 0.00, 0.00, 685.15, 0.00, 0.000, 0.000, 0.000, 19:27:30.374
134, 0.00, 0.00, 631.45, 0.00, 0.000, 0.000, 0.000, 19:27:30.374
135, 0.00, 0.00, 1375.81, 0.00, 0.000, 0.000, 0.000, 19:27:30.389
136, 0.00, 0.00, 985.19, 0.00, 0.000, 0.000, 0.000, 19:27:30.389
137, 0.00, 0.00, 419.88, 0.00, 0.000, 0.000, 0.000, 19:27:30.389
138, 0.00, 0.00, 1215.96, 0.00, 0.000, 0.000, 0.000, 19:27:30.390
139, 0.00, 0.00, 1325.44, 0.00, 0.000, 0.000, 0.000, 19:27:30.404
140, 0.00, 0.00, 397.99, 0.00, 0.000, 0.000, 0.000, 19:27:30.404
141, 0.00, 0.00, 743.36, 0.00, 0.000, 0.000, 0.000, 19:27:30.419
142, 0.00, 0.00, 1533.93, 0.00, 0.000, 0.000, 0.000, 19:27:30.419
143, 0.00, 0.00, 1501.10, 0.00, 0.000, 0.000, 0.000, 19:27:30.419
144, 0.00, 0.00, 1555.46, 0.00, 0.000, 0.000, 0.000, 19:27:30.420
145, 0.00, 0.00, 2352.60, 0.00, 0.000, 0.000, 0.000, 19:27:30.434
146, 0.00, 0.00, 1888.28, 0.00, 0.000, 0.000, 0.000, 19:27:30.434
147, 0.00, 0.00, 1356.60, 0.00, 0.000, 0.000, 0.000, 19:27:30.449
148, 0.00, 0.00, 2079.45, 0.00, 0.000, 0.000, 0.000, 19:27:30.449
149, 0.00, 0.00, 2229.18, 0.00, 0.000, 0.000, 0.000, 19:27:30.449
150, 0.00, 0.00, 1330.24, 0.00, 0.000, 0.000, 0.000, 19:27:30.450
151, 0.00, 0.00, 1784.20, 0.00, 0.000, 0.000, 0.000, 19:27:30.464
152, 0.00, 0.00, 2379.88, 0.00, 0.000, 0.000, 0.000, 19:27:30.464
153, 0.00, 0.00, 1606.63, 0.00, 0.000, 0.000, 0.000, 19:27:30.479
154, 0.00, 0.00, 1481.99, 0.00, 0.000, 0.000, 0.000, 19:27:30.480
155, 0.00, 0.00, 2382.13, 0.00, 0.000, 0.000, 0.000, 19:27:30.480
156, 0.00, 0.00, 1901.50, 0.00, 0.000, 0.000, 0.000, 19:27:30.480
157, 0.00, 0.00, 1340.77, 0.00, 0.000, 0.000, 0.000, 19:27:30.494
158, 0.00, 0.00, 2131.80, 0.00, 0.000, 0.000, 0.000, 19:27:30.494
159, 0.00, 0.00, 2177.75, 0.00, 0.000, 0.000, 0.000, 19:27:30.509
160, 0.00, 0.00, 1441.42, 0.00, 0.000, 0.000, 0.000, 19:27:30.509
161, 0.00, 0.00, 1853.35, 0.00, 0.000, 0.000, 0.000, 19:27:30.510
162, 0.00, 0.00, 2347.42, 0.00, 0.000, 0.000, 0.000, 19:27:30.510
163, 0.00, 0.00, 1665.92, 0.00, 0.000, 0.000, 0.000, 19:27:30.524
164, 0.00, 0.00, 1545.00, 0.00, 0.000, 0.000, 0.000, 19:27:30.524
165, 0.00, 0.00, 2346.59, 0.00, 0.000, 0.000, 0.000, 19:27:30.539
166, 0.00, 0.00, 1984.96, 0.00, 0.000, 0.000, 0.000, 19:27:30.539
167, 0.00, 0.00, 1396.07, 0.00, 0.000, 0.000, 0.000, 19:27:30.539
168, 0.00, 0.00, 2071.82, 0.00, 0.000, 0.000, 0.000, 19:27:30.539
169, 0.00, 0.00, 2270.04, 0.00, 0.000, 0.000, 0.000, 19:27:30.554
170, 0.00, 0.00, 1387.69, 0.00, 0.000, 0.000, 0.000, 19:27:30.554
171, 0.00, 0.00, 1852.20, 0.00, 0.000, 0.000, 0.000, 19:27:30.569
172, 0.00, 0.00, 2378.55, 0.00, 0.000, 0.000, 0.000, 19:27:30.569
173, 0.00, 0.00, 1700.17, 0.00, 0.000, 0.000, 0.000, 19:27:30.569
174, 0.00, 0.00, 1565.00, 0.00, 0.000, 0.000, 0.000, 19:27:30.570
175, 0.00, 0.00, 2254.68, 0.00, 0.000, 0.000, 0.000, 19:27:30.585
176, 0.00, 0.00, 1989.65, 0.00, 0.000, 0.000, 0.000, 19:27:30.585
177, 0.00, 0.00, 1369.75, 0.00, 0.000, 0.000, 0.000, 19:27:30.599
178, 0.00, 0.00, 2141.20, 0.00, 0.000, 0.000, 0.000, 19:27:30.599
179, 0.00, 0.00, 2272.33, 0.00, 0.000, 0.000, 0.000, 19:27:30.599
180, 0.00, 0.00, 1427.23, 0.00, 0.000, 0.000, 0.000, 19:27:30.600
181, 0.00, 0.00, 1860.34, 0.00, 0.000, 0.000, 0.000, 19:27:30.614
182, 0.00, 0.00, 2434.29, 0.00, 0.000, 0.000, 0.000, 19:27:30.614
183, 0.00, 0.00, 1637.46, 0.00, 0.000, 0.000, 0.000, 19:27:30.629
184, 0.00, 0.00, 1512.19, 0.00, 0.000, 0.000, 0.000, 19:27:30.629
185, 0.00, 0.00, 2333.51, 0.00, 0.000, 0.000, 0.000, 19:27:30.629
186, 0.00, 0.00, 1954.05, 0.00, 0.000, 0.000, 0.000, 19:27:30.630
187, 0.00, 0.00, 1376.54, 0.00, 0.000, 0.000, 0.000, 19:27:30.644
188, 0.00, 0.00, 2142.23, 0.00, 0.000, 0.000, 0.000, 19:27:30.644
189, 0.00, 0.00, 2259.77, 0.00, 0.000, 0.000, 0.000, 19:27:30.659
190, 0.00, 0.00, 1422.61, 0.00, 0.000, 0.000, 0.000, 19:27:30.660
191, 0.00, 0.00, 1777.40, 0.00, 0.000, 0.000, 0.000, 19:27:30.660
192, 0.00, 0.00, 2418.86, 0.00, 0.000, 0.000, 0.000, 19:27:30.660
193, 0.00, 0.00, 1676.24, 0.00, 0.000, 0.000, 0.000, 19:27:30.674
194, 0.00, 0.00, 1528.63, 0.00, 0.000, 0.000, 0.000, 19:27:30.674
195, 0.00, 0.00, 2351.62, 0.00, 0.000, 0.000, 0.000, 19:27:30.689
196, 0.00, 0.00, 2003.69, 0.00, 0.000, 0.000, 0.000, 19:27:30.689
197, 0.00, 0.00, 1396.44, 0.00, 0.000, 0.000, 0.000, 19:27:30.690
198, 0.00, 0.00, 2137.64, 0.00, 0.000, 0.000, 0.000, 19:27:30.690
199, 0.00, 0.00, 2207.08, 0.00, 0.000, 0.000, 0.000, 19:27:30.704
200, 0.00, 0.00, 1479.17, 0.00, 0.000, 0.000, 0.000, 19:27:30.704
0, 0.00, 0.00, -208.65, 0.00, 0.000, 0.000, 0.000, 19:27:30.705
1, 0.00, 0.00, 425.37, 0.00, 0.000, 0.000, 0.000, 19:27:30.719
2, 0.00, 0.00, -331.92, 0.00, 0.000, 0.000, 0.000, 19:27:30.719
3, 0.00, 0.00, -473.06, 0.00, 0.000, 0.000, 0.000, 19:27:30.734
4, 0.00, 0.00, 375.08, 0.00, 0.000, 0.000, 0.000, 19:27:30.734
5, 0.00, 0.00, 49.56, 0.00, 0.000, 0.000, 0.000, 19:27:30.735
6, 0.00, 0.00, -633.19, 0.00, 0.000, 0.000, 0.000, 19:27:30.735
7, 0.00, 0.00, 201.83, 0.00, 0.000, 0.000, 0.000, 19:27:30.749
8, 0.00, 0.00, 389.41, 0.00, 0.000, 0.000, 0.000, 19:27:30.749
9, 0.00, 0.00, -534.25, 0.00, 0.000, 0.000, 0.000, 19:27:30.765
10, 0.00, 0.00, -152.49, 0.00, 0.000, 0.000, 0.000, 19:27:30.765
11, 0.00, 0.00, 427.51, 0.00, 0.000, 0.000, 0.000, 19:27:30.765
12, 0.00, 0.00, -319.48, 0.00, 0.000, 0.000, 0.000, 19:27:30.765
13, 0.00, 0.00, -453.45, 0.00, 0.000, 0.000, 0.000, 19:27:30.779
14, 0.00, 0.00, 376.18, 0.00, 0.000, 0.000, 0.000, 19:27:30.779
15, 0.00, 0.00, 84.19, 0.00, 0.000, 0.000, 0.000, 19:27:30.794
16, 0.00, 0.00, -595.36, 0.00, 0.000, 0.000, 0.000, 19:27:30.794
17, 0.00, 0.00, 139.59, 0.00, 0.000, 0.000, 0.000, 19:27:30.795
18, 0.00, 0.00, 255.62, 0.00, 0.000, 0.000, 0.000, 19:27:30.795
19, 0.00, 0.00, -486.74, 0.00, 0.000, 0.000, 0.000, 19:27:30.809
20, 0.00, 0.00, -158.70, 0.00, 0.000, 0.000, 0.000, 19:27:30.809
21, 0.00, 0.00, 433.15, 0.00, 0.000, 0.000, 0.000, 19:27:30.824
22, 0.00, 0.00, -320.97, 0.00, 0.000, 0.000, 0.000, 19:27:30.824
23, 0.00, 0.00, -401.07, 0.00, 0.000, 0.000, 0.000, 19:27:30.824
24, 0.00, 0.00, 450.54, 0.00, 0.000, 0.000, 0.000, 19:27:30.824
25, 0.00, 0.00, 105.80, 0.00, 0.000, 0.000, 0.000, 19:27:30.839
26, 0.00, 0.00, -517.07, 0.00, 0.000, 0.000, 0.000, 19:27:30.839
27, 0.00, 0.00, 82.54, 0.00, 0.000, 0.000, 0.000, 19:27:30.854
28, 0.00, 0.00, 331.99, 0.00, 0.000, 0.000, 0.000, 19:27:30.854
29, 0.00, 0.00, -487.63, 0.00, 0.000, 0.000, 0.000, 19:27:30.854
30, 0.00, 0.00, -169.48, 0.00, 0.000, 0.000, 0.000, 19:27:30.855
31, 0.00, 0.00, 404.12, 0.00, 0.000, 0.000, 0.000, 19:27:30.869
32, 0.00, 0.00, -281.47, 0.00, 0.000, 0.000, 0.000, 19:27:30.869
33, 0.00, 0.00, -507.43, 0.00, 0.000, 0.000, 0.000, 19:27:30.884
34, 0.00, 0.00, 351.60, 0.00, 0.000, 0.000, 0.000, 19:27:30.884
35, 0.00, 0.00, 54.33, 0.00, 0.000, 0.000, 0.000, 19:27:30.884
36, 0.00, 0.00, -626.49, 0.00, 0.000, 0.000, 0.000, 19:27:30.885
37, 0.00, 0.00, 125.24, 0.00, 0.000, 0.000, 0.000, 19:27:30.899
38, 0.00, 0.00, 346.56, 0.00, 0.000, 0.000, 0.000, 19:27:30.899
39, 0.00, 0.00, -544.30, 0.00, 0.000, 0.000, 0.000, 19:27:30.914
40, 0.00, 0.00, -207.92, 0.00, 0.000, 0.000, 0.000, 19:27:30.915
41, 0.00, 0.00, 461.04, 0.00, 0.000, 0.000, 0.000, 19:27:30.915
42, 0.00, 0.00, -304.30, 0.00, 0.000, 0.000, 0.000, 19:27:30.915
43, 0.00, 0.00, -554.38, 0.00, 0.000, 0.000, 0.000, 19:27:30.929
44, 0.00, 0.00, 415.28, 0.00, 0.000, 0.000, 0.000, 19:27:30.929
45, 0.00, 0.00, 42.73, 0.00, 0.000, 0.000, 0.000, 19:27:30.944
46, 0.00, 0.00, -566.05, 0.00, 0.000, 0.000, 0.000, 19:27:30.944
47, 0.00, 0.00, 121.80, 0.00, 0.000, 0.000, 0.000, 19:27:30.945
48, 0.00, 0.00, 328.53, 0.00, 0.000, 0.000, 0.000, 19:27:30.945
49, 0.00, 0.00, -463.03, 0.00, 0.000, 0.000, 0.000, 19:27:30.959
50, 0.00, 0.00, -182.10, 0.00, 0.000, 0.000, 0.000, 19:27:30.959
51, 0.00, 0.00, 514.88, 0.00, 0.000, 0.000, 0.000, 19:27:30.974
52, 0.00, 0.00, -88.52, 0.00, 0.000, 0.000, 0.000, 19:27:30.974
53, 0.00, 0.00, -168.66, 0.00, 0.000, 0.000, 0.000, 19:27:30.974
54, 0.00, 0.00, 677.95, 0.00, 0.000, 0.000, 0.000, 19:27:30.974
55, 0.00, 0.00, 220.84, 0.00, 0.000, 0.000, 0.000, 19:27:30.990
56, 0.00, 0.00, -451.51, 0.00, 0.000, 0.000, 0.000, 19:27:30.990
57, 0.00, 0.00, 270.86, 0.00, 0.000, 0.000, 0.000, 19:27:31.004
58, 0.00, 0.00, 126.03, 0.00, 0.000, 0.000, 0.000, 19:27:31.004
59, 0.00, 0.00, -795.07, 0.00, 0.000, 0.000, 0.000, 19:27:31.004
60, 0.00, 0.00, -319.80, 0.00, 0.000, 0.000, 0.000, 19:27:31.005
61, 0.00, 0.00, 269.49, 0.00, 0.000, 0.000, 0.000, 19:27:31.019
62, 0.00, 0.00, -270.57, 0.00, 0.000, 0.000, 0.000, 19:27:31.019
63, 0.00, 0.00, -505.88, 0.00, 0.000, 0.000, 0.000, 19:27:31.034
64, 0.00, 0.00, 298.52, 0.00, 0.000, 0.000, 0.000, 19:27:31.034
65, 0.00, 0.00, 50.06, 0.00, 0.000, 0.000, 0.000, 19:27:31.034
66, 0.00, 0.00, -668.48, 0.00, 0.000, 0.000, 0.000, 19:27:31.035
67, 0.00, 0.00, 51.24, 0.00, 0.000, 0.000, 0.000, 19:27:31.049
68, 0.00, 0.00, 284.65, 0.00, 0.000, 0.000, 0.000, 19:27:31.049
69, 0.00, 0.00, -477.41, 0.00, 0.000, 0.000, 0.000, 19:27:31.064
70, 0.00, 0.00, -209.03, 0.00, 0.000, 0.000, 0.000, 19:27:31.064
71, 0.00, 0.00, 398.69, 0.00, 0.000, 0.000, 0.000, 19:27:31.064
72, 0.00, 0.00, -257.84, 0.00, 0.000, 0.000, 0.000, 19:27:31.065
73, 0.00, 0.00, -498.06, 0.00, 0.000, 0.000, 0.000, 19:27:31.079
74, 0.00, 0.00, 319.23, 0.00, 0.000, 0.000, 0.000, 19:27:31.079
75, 0.00, 0.00, 67.06, 0.00, 0.000, 0.000, 0.000, 19:27:31.095
76, 0.00, 0.00, -645.25, 0.00, 0.000, 0.000, 0.000, 19:27:31.095
77, 0.00, 0.00, 173.73, 0.00, 0.000, 0.000, 0.000, 19:27:31.095
78, 0.00, 0.00, 347.75, 0.00, 0.000, 0.000, 0.000, 19:27:31.095
79, 0.00, 0.00, -497.64, 0.00, 0.000, 0.000, 0.000, 19:27:31.109
80, 0.00, 0.00, -219.49, 0.00, 0.000, 0.000, 0.000, 19:27:31.109
81, 0.00, 0.00, 452.96, 0.00, 0.000, 0.000, 0.000, 19:27:31.124
82, 0.00, 0.00, -235.64, 0.00, 0.000, 0.000, 0.000, 19:27:31.124
83, 0.00, 0.00, -499.98, 0.00, 0.000, 0.000, 0.000, 19:27:31.125
84, 0.00, 0.00, 355.26, 0.00, 0.000, 0.000, 0.000, 19:27:31.125
85, 0.00, 0.00, 114.59, 0.00, 0.000, 0.000, 0.000, 19:27:31.139
86, 0.00, 0.00, -555.44, 0.00, 0.000, 0.000, 0.000, 19:27:31.139
87, 0.00, 0.00, 133.89, 0.00, 0.000, 0.000, 0.000, 19:27:31.154
88, 0.00, 0.00, 326.94, 0.00, 0.000, 0.000, 0.000, 19:27:31.154
89, 0.00, 0.00, -513.84, 0.00, 0.000, 0.000, 0.000, 19:27:31.155
90, 0.00, 0.00, -186.20, 0.00, 0.000, 0.000, 0.000, 19:27:31.155
91, 0.00, 0.00, 495.08, 0.00, 0.000, 0.000, 0.000, 19:27:31.169
92, 0.00, 0.00, -257.57, 0.00, 0.000, 0.000, 0.000, 19:27:31.169
93, 0.00, 0.00, -423.41, 0.00, 0.000, 0.000, 0.000, 19:27:31.184
94, 0.00, 0.00, 420.63, 0.00, 0.000, 0.000, 0.000, 19:27:31.184
95, 0.00, 0.00, 132.25, 0.00, 0.000, 0.000, 0.000, 19:27:31.184
96, 0.00, 0.00, -553.26, 0.00, 0.000, 0.000, 0.000, 19:27:31.185
97, 0.00, 0.00, 60.10, 0.00, 0.000, 0.000, 0.000, 19:27:31.199
98, 0.00, 0.00, 348.78, 0.00, 0.000, 0.000, 0.000, 19:27:31.199
99, 0.00, 0.00, -461.79, 0.00, 0.000, 0.000, 0.000, 19:27:31.214
100, 0.00, 0.00, -152.97, 0.00, 0.000, 0.000, 0.000, 19:27:31.214
101, 0.00, 0.00, 527.45, 0.00, 0.000, 0.000, 0.000, 19:27:31.214
102, 0.00, 0.00, -193.68, 0.00, 0.000, 0.000, 0.000, 19:27:31.214
103, 0.00, 0.00, -500.24, 0.00, 0.000, 0.000, 0.000, 19:27:31.229
104, 0.00, 0.00, 436.85, 0.00, 0.000, 0.000, 0.000, 19:27:31.229
105, 0.00, 0.00, 78.21, 0.00, 0.000, 0.000, 0.000, 19:27:31.244
106, 0.00, 0.00, -529.83, 0.00, 0.000, 0.000, 0.000, 19:27:31.244
107, 0.00, 0.00, 166.02, 0.00, 0.000, 0.000, 0.000, 19:27:31.244
108, 0.00, 0.00, 366.30, 0.00, 0.000, 0.000, 0.000, 19:27:31.245
109, 0.00, 0.00, -480.68, 0.00, 0.000, 0.000, 0.000, 19:27:31.259
110, 0.00, 0.00, -164.43, 0.00, 0.000, 0.000, 0.000, 19:27:31.259
111, 0.00, 0.00, 378.50, 0.00, 0.000, 0.000, 0.000, 19:27:31.275
112, 0.00, 0.00, -196.46, 0.00, 0.000, 0.000, 0.000, 19:27:31.275
113, 0.00, 0.00, -573.72, 0.00, 0.000, 0.000, 0.000, 19:27:31.275
114, 0.00, 0.00, -555.86, 0.00, 0.000, 0.000, 0.000, 19:27:31.275
115, 0.00, 0.00, -903.92, 0.00, 0.000, 0.000, 0.000, 19:27:31.289
116, 0.00, 0.00, -1665.36, 0.00, 0.000, 0.000, 0.000, 19:27:31.289
117, 0.00, 0.00, -973.23, 0.00, 0.000, 0.000, 0.000, 19:27:31.304
118, 0.00, 0.00, -715.94, 0.00, 0.000, 0.000, 0.000, 19:27:31.304
119, 0.00, 0.00, -1494.46, 0.00, 0.000, 0.000, 0.000, 19:27:31.305
120, 0.00, 0.00, -1246.38, 0.00, 0.000, 0.000, 0.000, 19:27:31.305
121, 0.00, 0.00, -579.94, 0.00, 0.000, 0.000, 0.000, 19:27:31.319
122, 0.00, 0.00, -1260.89, 0.00, 0.000, 0.000, 0.000, 19:27:31.319
123, 0.00, 0.00, -1535.48, 0.00, 0.000, 0.000, 0.000, 19:27:31.334
124, 0.00, 0.00, -613.86, 0.00, 0.000, 0.000, 0.000, 19:27:31.334
125, 0.00, 0.00, -922.43, 0.00, 0.000, 0.000, 0.000, 19:27:31.335
126, 0.00, 0.00, -1594.31, 0.00, 0.000, 0.000, 0.000, 19:27:31.335
127, 0.00, 0.00, -893.18, 0.00, 0.000, 0.000, 0.000, 19:27:31.349
128, 0.00, 0.00, -695.68, 0.00, 0.000, 0.000, 0.000, 19:27:31.349
129, 0.00, 0.00, -1458.77, 0.00, 0.000, 0.000, 0.000, 19:27:31.364
130, 0.00, 0.00, -1215.36, 0.00, 0.000, 0.000, 0.000, 19:27:31.364
131, 0.00, 0.00, -549.11, 0.00, 0.000, 0.000, 0.000, 19:27:31.365
132, 0.00, 0.00, -1124.54, 0.00, 0.000, 0.000, 0.000, 19:27:31.365
133, 0.00, 0.00, -1550.26, 0.00, 0.000, 0.000, 0.000, 19:27:31.379
134, 0.00, 0.00, -599.45, 0.00, 0.000, 0.000, 0.000, 19:27:31.379
135, 0.00, 0.00, -906.13, 0.00, 0.000, 0.000, 0.000, 19:27:31.394
136, 0.00, 0.00, -1573.16, 0.00, 0.000, 0.000, 0.000, 19:27:31.394
137, 0.00, 0.00, -867.19, 0.00, 0.000, 0.000, 0.000, 19:27:31.394
138, 0.00, 0.00, -674.50, 0.00, 0.000, 0.000, 0.000, 19:27:31.395
139, 0.00, 0.00, -1459.74, 0.00, 0.000, 0.000, 0.000, 19:27:31.409
140, 0.00, 0.00, -1197.25, 0.00, 0.000, 0.000, 0.000, 19:27:31.409
141, 0.00, 0.00, -575.30, 0.00, 0.000, 0.000, 0.000, 19:27:31.424
142, 0.00, 0.00, -1234.55, 0.00, 0.000, 0.000, 0.000, 19:27:31.424
143, 0.00, 0.00, -1461.33, 0.00, 0.000, 0.000, 0.000, 19:27:31.425
144, 0.00, 0.00, -642.89, 0.00, 0.000, 0.000, 0.000, 19:27:31.425
145, 0.00, 0.00, -844.10, 0.00, 0.000, 0.000, 0.000, 19:27:31.439
146, 0.00, 0.00, -1542.60, 0.00, 0.000, 0.000, 0.000, 19:27:31.439
147, 0.00, 0.00, -868.75, 0.00, 0.000, 0.000, 0.000, 19:27:31.454
148, 0.00, 0.00, -572.74, 0.00, 0.000, 0.000, 0.000, 19:27:31.454
149, 0.00, 0.00, -1450.07, 0.00, 0.000, 0.000, 0.000, 19:27:31.454
150, 0.00, 0.00, -1235.90, 0.00, 0.000, 0.000, 0.000, 19:27:31.455
151, 0.00, 0.00, -515.68, 0.00, 0.000, 0.000, 0.000, 19:27:31.469
152, 0.00, 0.00, -1273.46, 0.00, 0.000, 0.000, 0.000, 19:27:31.469
153, 0.00, 0.00, -1454.63, 0.00, 0.000, 0.000, 0.000, 19:27:31.484
154, 0.00, 0.00, -635.27, 0.00, 0.000, 0.000, 0.000, 19:27:31.484
155, 0.00, 0.00, -834.73, 0.00, 0.000, 0.000, 0.000, 19:27:31.484
156, 0.00, 0.00, -1619.51, 0.00, 0.000, 0.000, 0.000, 19:27:31.485
157, 0.00, 0.00, -900.92, 0.00, 0.000, 0.000, 0.000, 19:27:31.499
158, 0.00, 0.00, -590.77, 0.00, 0.000, 0.000, 0.000, 19:27:31.499
159, 0.00, 0.00, -1512.86, 0.00, 0.000, 0.000, 0.000, 19:27:31.514
160, 0.00, 0.00, -1298.67, 0.00, 0.000, 0.000, 0.000, 19:27:31.515
161, 0.00, 0.00, -491.47, 0.00, 0.000, 0.000, 0.000, 19:27:31.515
162, 0.00, 0.00, -1176.46, 0.00, 0.000, 0.000, 0.000, 19:27:31.515
163, 0.00, 0.00, -1423.12, 0.00, 0.000, 0.000, 0.000, 19:27:31.529
164, 0.00, 0.00, -672.09, 0.00, 0.000, 0.000, 0.000, 19:27:31.529
165, 0.00, 0.00, -894.88, 0.00, 0.000, 0.000, 0.000, 19:27:31.544
166, 0.00, 0.00, -1514.09, 0.00, 0.000, 0.000, 0.000, 19:27:31.544
167, 0.00, 0.00, -908.02, 0.00, 0.000, 0.000, 0.000, 19:27:31.545
168, 0.00, 0.00, -584.64, 0.00, 0.000, 0.000, 0.000, 19:27:31.545
169, 0.00, 0.00, -1469.86, 0.00, 0.000, 0.000, 0.000, 19:27:31.559
170, 0.00, 0.00, -1273.19, 0.00, 0.000, 0.000, 0.000, 19:27:31.559
171, 0.00, 0.00, -530.51, 0.00, 0.000, 0.000, 0.000, 19:27:31.574
172, 0.00, 0.00, -1162.86, 0.00, 0.000, 0.000, 0.000, 19:27:31.574
173, 0.00, 0.00, -1478.71, 0.00, 0.000, 0.000, 0.000, 19:27:31.574
174, 0.00, 0.00, -645.34, 0.00, 0.000, 0.000, 0.000, 19:27:31.575
175, 0.00, 0.00, -867.27, 0.00, 0.000, 0.000, 0.000, 19:27:31.589
176, 0.00, 0.00, -1576.02, 0.00, 0.000, 0.000, 0.000, 19:27:31.590
177, 0.00, 0.00, -892.61, 0.00, 0.000, 0.000, 0.000, 19:27:31.604
178, 0.00, 0.00, -616.71, 0.00, 0.000, 0.000, 0.000, 19:27:31.604
179, 0.00, 0.00, -1457.49, 0.00, 0.000, 0.000, 0.000, 19:27:31.604
180, 0.00, 0.00, -1207.88, 0.00, 0.000, 0.000, 0.000, 19:27:31.605
181, 0.00, 0.00, -553.87, 0.00, 0.000, 0.000, 0.000, 19:27:31.619
182, 0.00, 0.00, -1152.32, 0.00, 0.000, 0.000, 0.000, 19:27:31.619
183, 0.00, 0.00, -1512.25, 0.00, 0.000, 0.000, 0.000, 19:27:31.634
184, 0.00, 0.00, -553.98, 0.00, 0.000, 0.000, 0.000, 19:27:31.634
185, 0.00, 0.00, -904.82, 0.00, 0.000, 0.000, 0.000, 19:27:31.634
186, 0.00, 0.00, -1618.54, 0.00, 0.000, 0.000, 0.000, 19:27:31.635
187, 0.00, 0.00, -924.76, 0.00, 0.000, 0.000, 0.000, 19:27:31.649
188, 0.00, 0.00, -593.55, 0.00, 0.000, 0.000, 0.000, 19:27:31.649
189, 0.00, 0.00, -1490.53, 0.00, 0.000, 0.000, 0.000, 19:27:31.664
190, 0.00, 0.00, -1222.59, 0.00, 0.000, 0.000, 0.000, 19:27:31.664
191, 0.00, 0.00, -512.96, 0.00, 0.000, 0.000, 0.000, 19:27:31.664
192, 0.00, 0.00, -1188.59, 0.00, 0.000, 0.000, 0.000, 19:27:31.665
193, 0.00, 0.00, -1474.37, 0.00, 0.000, 0.000, 0.000, 19:27:31.679
194, 0.00, 0.00, -644.29, 0.00, 0.000, 0.000, 0.000, 19:27:31.679
195, 0.00, 0.00, -855.15, 0.00, 0.000, 0.000, 0.000, 19:27:31.694
196, 0.00, 0.00, -1503.87, 0.00, 0.000, 0.000, 0.000, 19:27:31.694
197, 0.00, 0.00, -849.45, 0.00, 0.000, 0.000, 0.000, 19:27:31.695
198, 0.00, 0.00, -603.40, 0.00, 0.000, 0.000, 0.000, 19:27:31.695
199, 0.00, 0.00, -1431.21, 0.00, 0.000, 0.000, 0.000, 19:27:31.709
200, 0.00, 0.00, -1212.88, 0.00, 0.000, 0.000, 0.000, 19:27:31.709
0, 0.00, 0.00, 539.17, 0.00, 0.000, 0.000, 0.000, 19:27:31.710
1, 0.00, 0.00, -210.82, 0.00, 0.000, 0.000, 0.000, 19:27:31.724
2, 0.00, 0.00, -492.25, 0.00, 0.000, 0.000, 0.000, 19:27:31.724
3, 0.00, 0.00, 269.61, 0.00, 0.000, 0.000, 0.000, 19:27:31.739
4, 0.00, 0.00, 46.37, 0.00, 0.000, 0.000, 0.000, 19:27:31.739
5, 0.00, 0.00, -643.68, 0.00, 0.000, 0.000, 0.000, 19:27:31.740
6, 0.00, 0.00, 90.85, 0.00, 0.000, 0.000, 0.000, 19:27:31.740
7, 0.00, 0.00, 362.10, 0.00, 0.000, 0.000, 0.000, 19:27:31.754
8, 0.00, 0.00, -521.31, 0.00, 0.000, 0.000, 0.000, 19:27:31.754
9, 0.00, 0.00, -277.10, 0.00, 0.000, 0.000, 0.000, 19:27:31.769
10, 0.00, 0.00, 417.91, 0.00, 0.000, 0.000, 0.000, 19:27:31.769
11, 0.00, 0.00, -138.86, 0.00, 0.000, 0.000, 0.000, 19:27:31.770
12, 0.00, 0.00, -570.22, 0.00, 0.000, 0.000, 0.000, 19:27:31.770
13, 0.00, 0.00, 291.31, 0.00, 0.000, 0.000, 0.000, 19:27:31.784
14, 0.00, 0.00, 105.59, 0.00, 0.000, 0.000, 0.000, 19:27:31.784
15, 0.00, 0.00, -678.23, 0.00, 0.000, 0.000, 0.000, 19:27:31.799
16, 0.00, 0.00, 69.90, 0.00, 0.000, 0.000, 0.000, 19:27:31.799
17, 0.00, 0.00, 413.88, 0.00, 0.000, 0.000, 0.000, 19:27:31.800
18, 0.00, 0.00, -479.21, 0.00, 0.000, 0.000, 0.000, 19:27:31.800
19, 0.00, 0.00, -184.07, 0.00, 0.000, 0.000, 0.000, 19:27:31.814
20, 0.00, 0.00, 423.82, 0.00, 0.000, 0.000, 0.000, 19:27:31.814
21, 0.00, 0.00, -60.60, 0.00, 0.000, 0.000, 0.000, 19:27:31.829
22, 0.00, 0.00, -520.66, 0.00, 0.000, 0.000, 0.000, 19:27:31.829
23, 0.00, 0.00, 421.61, 0.00, 0.000, 0.000, 0.000, 19:27:31.829
24, 0.00, 0.00, 426.00, 0.00, 0.000, 0.000, 0.000, 19:27:31.830
25, 0.00, 0.00, -271.79, 0.00, 0.000, 0.000, 0.000, 19:27:31.844
26, 0.00, 0.00, 319.84, 0.00, 0.000, 0.000, 0.000, 19:27:31.844
27, 0.00, 0.00, 554.27, 0.00, 0.000, 0.000, 0.000, 19:27:31.859
28, 0.00, 0.00, -404.82, 0.00, 0.000, 0.000, 0.000, 19:27:31.859
29, 0.00, 0.00, -343.38, 0.00, 0.000, 0.000, 0.000, 19:27:31.859
30, 0.00, 0.00, 179.15, 0.00, 0.000, 0.000, 0.000, 19:27:31.860
31, 0.00, 0.00, -409.64, 0.00, 0.000, 0.000, 0.000, 19:27:31.874
