%OpenBCI Raw EEG Data
%
%Sample Rate = 200.0 Hz
%First Column = SampleIndex
%Last Column = Timestamp 
%Other Columns = EEG data in microvolts followed by Accel Data (in G) interleaved with Aux Data
0, 0.00, 0.00, 190.22, 0.00, 0.000, 0.000, 0.000, 19:17:04.512
1, 0.00, 0.00, -397.51, 0.00, 0.000, 0.000, 0.000, 19:17:04.528
2, 0.00, 0.00, 390.89, 0.00, 0.000, 0.000, 0.000, 19:17:04.528
3, 0.00, 0.00, 473.76, 0.00, 0.000, 0.000, 0.000, 19:17:04.542
4, 0.00, 0.00, -375.27, 0.00, 0.000, 0.000, 0.000, 19:17:04.542
5, 0.00, 0.00, 71.94, 0.00, 0.000, 0.000, 0.000, 19:17:04.543
6, 0.00, 0.00, 655.11, 0.00, 0.000, 0.000, 0.000, 19:17:04.543
7, 0.00, 0.00, -112.57, 0.00, 0.000, 0.000, 0.000, 19:17:04.557
8, 0.00, 0.00, -248.82, 0.00, 0.000, 0.000, 0.000, 19:17:04.557
9, 0.00, 0.00, 575.99, 0.00, 0.000, 0.000, 0.000, 19:17:04.572
10, 0.00, 0.00, 177.91, 0.00, 0.000, 0.000, 0.000, 19:17:04.572
11, 0.00, 0.00, -438.63, 0.00, 0.000, 0.000, 0.000, 19:17:04.572
12, 0.00, 0.00, 303.41, 0.00, 0.000, 0.000, 0.000, 19:17:04.572
13, 0.00, 0.00, 411.08, 0.00, 0.000, 0.000, 0.000, 19:17:04.587
14, 0.00, 0.00, -463.25, 0.00, 0.000, 0.000, 0.000, 19:17:04.587
15, 0.00, 0.00, -97.84, 0.00, 0.000, 0.000, 0.000, 19:17:04.602
16, 0.00, 0.00, 464.65, 0.00, 0.000, 0.000, 0.000, 19:17:04.602
17, 0.00, 0.00, -285.00, 0.00, 0.000, 0.000, 0.000, 19:17:04.603
18, 0.00, 0.00, -418.90, 0.00, 0.000, 0.000, 0.000, 19:17:04.603
19, 0.00, 0.00, 432.39, 0.00, 0.000, 0.000, 0.000, 19:17:04.617
20, 0.00, 0.00, 35.09, 0.00, 0.000, 0.000, 0.000, 19:17:04.617
21, 0.00, 0.00, -567.51, 0.00, 0.000, 0.000, 0.000, 19:17:04.632
22, 0.00, 0.00, 215.49, 0.00, 0.000, 0.000, 0.000, 19:17:04.632
23, 0.00, 0.00, 320.57, 0.00, 0.000, 0.000, 0.000, 19:17:04.633
24, 0.00, 0.00, -500.34, 0.00, 0.000, 0.000, 0.000, 19:17:04.633
25, 0.00, 0.00, -100.18, 0.00, 0.000, 0.000, 0.000, 19:17:04.647
26, 0.00, 0.00, 507.29, 0.00, 0.000, 0.000, 0.000, 19:17:04.647
27, 0.00, 0.00, -245.48, 0.00, 0.000, 0.000, 0.000, 19:17:04.662
28, 0.00, 0.00, -345.68, 0.00, 0.000, 0.000, 0.000, 19:17:04.662
29, 0.00, 0.00, 480.76, 0.00, 0.000, 0.000, 0.000, 19:17:04.662
30, 0.00, 0.00, 78.52, 0.00, 0.000, 0.000, 0.000, 19:17:04.663
31, 0.00, 0.00, -499.39, 0.00, 0.000, 0.000, 0.000, 19:17:04.677
32, 0.00, 0.00, 289.98, 0.00, 0.000, 0.000, 0.000, 19:17:04.677
33, 0.00, 0.00, 394.30, 0.00, 0.000, 0.000, 0.000, 19:17:04.692
34, 0.00, 0.00, -471.00, 0.00, 0.000, 0.000, 0.000, 19:17:04.692
35, 0.00, 0.00, -33.24, 0.00, 0.000, 0.000, 0.000, 19:17:04.692
36, 0.00, 0.00, 562.67, 0.00, 0.000, 0.000, 0.000, 19:17:04.692
37, 0.00, 0.00, -192.46, 0.00, 0.000, 0.000, 0.000, 19:17:04.713
38, 0.00, 0.00, -318.00, 0.00, 0.000, 0.000, 0.000, 19:17:04.714
39, 0.00, 0.00, 494.45, 0.00, 0.000, 0.000, 0.000, 19:17:04.722
40, 0.00, 0.00, 127.45, 0.00, 0.000, 0.000, 0.000, 19:17:04.723
41, 0.00, 0.00, -467.65, 0.00, 0.000, 0.000, 0.000, 19:17:04.723
42, 0.00, 0.00, 304.44, 0.00, 0.000, 0.000, 0.000, 19:17:04.723
43, 0.00, 0.00, 405.69, 0.00, 0.000, 0.000, 0.000, 19:17:04.737
44, 0.00, 0.00, -443.39, 0.00, 0.000, 0.000, 0.000, 19:17:04.737
45, 0.00, 0.00, -30.37, 0.00, 0.000, 0.000, 0.000, 19:17:04.752
46, 0.00, 0.00, 569.58, 0.00, 0.000, 0.000, 0.000, 19:17:04.752
47, 0.00, 0.00, -220.77, 0.00, 0.000, 0.000, 0.000, 19:17:04.752
48, 0.00, 0.00, -320.98, 0.00, 0.000, 0.000, 0.000, 19:17:04.752
49, 0.00, 0.00, 510.03, 0.00, 0.000, 0.000, 0.000, 19:17:04.767
50, 0.00, 0.00, 136.53, 0.00, 0.000, 0.000, 0.000, 19:17:04.767
51, 0.00, 0.00, -470.69, 0.00, 0.000, 0.000, 0.000, 19:17:04.782
52, 0.00, 0.00, 271.05, 0.00, 0.000, 0.000, 0.000, 19:17:04.782
53, 0.00, 0.00, 394.86, 0.00, 0.000, 0.000, 0.000, 19:17:04.782
54, 0.00, 0.00, -409.70, 0.00, 0.000, 0.000, 0.000, 19:17:04.783
55, 0.00, 0.00, -7.35, 0.00, 0.000, 0.000, 0.000, 19:17:04.797
56, 0.00, 0.00, 579.00, 0.00, 0.000, 0.000, 0.000, 19:17:04.797
57, 0.00, 0.00, -174.54, 0.00, 0.000, 0.000, 0.000, 19:17:04.812
58, 0.00, 0.00, -315.66, 0.00, 0.000, 0.000, 0.000, 19:17:04.812
59, 0.00, 0.00, 527.26, 0.00, 0.000, 0.000, 0.000, 19:17:04.812
60, 0.00, 0.00, 124.73, 0.00, 0.000, 0.000, 0.000, 19:17:04.812
61, 0.00, 0.00, -464.91, 0.00, 0.000, 0.000, 0.000, 19:17:04.827
62, 0.00, 0.00, 289.92, 0.00, 0.000, 0.000, 0.000, 19:17:04.827
63, 0.00, 0.00, 402.41, 0.00, 0.000, 0.000, 0.000, 19:17:04.842
64, 0.00, 0.00, -424.39, 0.00, 0.000, 0.000, 0.000, 19:17:04.843
65, 0.00, 0.00, -43.75, 0.00, 0.000, 0.000, 0.000, 19:17:04.843
66, 0.00, 0.00, 559.34, 0.00, 0.000, 0.000, 0.000, 19:17:04.843
67, 0.00, 0.00, -206.72, 0.00, 0.000, 0.000, 0.000, 19:17:04.857
68, 0.00, 0.00, -336.45, 0.00, 0.000, 0.000, 0.000, 19:17:04.857
69, 0.00, 0.00, 538.47, 0.00, 0.000, 0.000, 0.000, 19:17:04.872
70, 0.00, 0.00, 119.66, 0.00, 0.000, 0.000, 0.000, 19:17:04.872
71, 0.00, 0.00, -475.28, 0.00, 0.000, 0.000, 0.000, 19:17:04.872
72, 0.00, 0.00, 291.32, 0.00, 0.000, 0.000, 0.000, 19:17:04.873
73, 0.00, 0.00, 397.60, 0.00, 0.000, 0.000, 0.000, 19:17:04.887
74, 0.00, 0.00, -458.22, 0.00, 0.000, 0.000, 0.000, 19:17:04.887
75, 0.00, 0.00, -35.70, 0.00, 0.000, 0.000, 0.000, 19:17:04.902
76, 0.00, 0.00, 603.77, 0.00, 0.000, 0.000, 0.000, 19:17:04.902
77, 0.00, 0.00, 1.66, 0.00, 0.000, 0.000, 0.000, 19:17:04.902
78, 0.00, 0.00, 6.57, 0.00, 0.000, 0.000, 0.000, 19:17:04.902
79, 0.00, 0.00, 942.97, 0.00, 0.000, 0.000, 0.000, 19:17:04.917
80, 0.00, 0.00, 538.49, 0.00, 0.000, 0.000, 0.000, 19:17:04.917
81, 0.00, 0.00, -326.72, 0.00, 0.000, 0.000, 0.000, 19:17:04.932
82, 0.00, 0.00, 171.96, 0.00, 0.000, 0.000, 0.000, 19:17:04.932
83, 0.00, 0.00, 141.02, 0.00, 0.000, 0.000, 0.000, 19:17:04.932
84, 0.00, 0.00, -592.65, 0.00, 0.000, 0.000, 0.000, 19:17:04.932
85, 0.00, 0.00, -68.05, 0.00, 0.000, 0.000, 0.000, 19:17:04.948
86, 0.00, 0.00, 538.04, 0.00, 0.000, 0.000, 0.000, 19:17:04.948
87, 0.00, 0.00, -245.80, 0.00, 0.000, 0.000, 0.000, 19:17:04.962
88, 0.00, 0.00, -383.92, 0.00, 0.000, 0.000, 0.000, 19:17:04.962
89, 0.00, 0.00, 469.42, 0.00, 0.000, 0.000, 0.000, 19:17:04.962
90, 0.00, 0.00, 82.01, 0.00, 0.000, 0.000, 0.000, 19:17:04.962
91, 0.00, 0.00, -510.91, 0.00, 0.000, 0.000, 0.000, 19:17:04.977
92, 0.00, 0.00, 258.50, 0.00, 0.000, 0.000, 0.000, 19:17:04.977
93, 0.00, 0.00, 409.12, 0.00, 0.000, 0.000, 0.000, 19:17:04.992
94, 0.00, 0.00, -460.98, 0.00, 0.000, 0.000, 0.000, 19:17:04.992
95, 0.00, 0.00, -34.88, 0.00, 0.000, 0.000, 0.000, 19:17:04.992
96, 0.00, 0.00, 577.18, 0.00, 0.000, 0.000, 0.000, 19:17:04.993
97, 0.00, 0.00, -183.00, 0.00, 0.000, 0.000, 0.000, 19:17:05.007
98, 0.00, 0.00, -306.43, 0.00, 0.000, 0.000, 0.000, 19:17:05.007
99, 0.00, 0.00, 540.09, 0.00, 0.000, 0.000, 0.000, 19:17:05.022
100, 0.00, 0.00, 127.96, 0.00, 0.000, 0.000, 0.000, 19:17:05.022
101, 0.00, 0.00, -470.00, 0.00, 0.000, 0.000, 0.000, 19:17:05.022
102, 0.00, 0.00, 307.48, 0.00, 0.000, 0.000, 0.000, 19:17:05.023
103, 0.00, 0.00, 443.80, 0.00, 0.000, 0.000, 0.000, 19:17:05.037
104, 0.00, 0.00, -396.10, 0.00, 0.000, 0.000, 0.000, 19:17:05.037
105, 0.00, 0.00, -1.26, 0.00, 0.000, 0.000, 0.000, 19:17:05.052
106, 0.00, 0.00, 626.53, 0.00, 0.000, 0.000, 0.000, 19:17:05.052
107, 0.00, 0.00, -175.60, 0.00, 0.000, 0.000, 0.000, 19:17:05.052
108, 0.00, 0.00, -289.73, 0.00, 0.000, 0.000, 0.000, 19:17:05.053
109, 0.00, 0.00, 574.66, 0.00, 0.000, 0.000, 0.000, 19:17:05.067
110, 0.00, 0.00, 187.50, 0.00, 0.000, 0.000, 0.000, 19:17:05.067
111, 0.00, 0.00, -413.00, 0.00, 0.000, 0.000, 0.000, 19:17:05.082
112, 0.00, 0.00, 346.63, 0.00, 0.000, 0.000, 0.000, 19:17:05.082
113, 0.00, 0.00, 508.22, 0.00, 0.000, 0.000, 0.000, 19:17:05.083
114, 0.00, 0.00, -381.97, 0.00, 0.000, 0.000, 0.000, 19:17:05.083
115, 0.00, 0.00, 30.61, 0.00, 0.000, 0.000, 0.000, 19:17:05.097
116, 0.00, 0.00, 673.43, 0.00, 0.000, 0.000, 0.000, 19:17:05.097
117, 0.00, 0.00, -105.59, 0.00, 0.000, 0.000, 0.000, 19:17:05.112
118, 0.00, 0.00, -234.27, 0.00, 0.000, 0.000, 0.000, 19:17:05.112
119, 0.00, 0.00, 592.71, 0.00, 0.000, 0.000, 0.000, 19:17:05.112
120, 0.00, 0.00, 199.48, 0.00, 0.000, 0.000, 0.000, 19:17:05.112
121, 0.00, 0.00, -403.58, 0.00, 0.000, 0.000, 0.000, 19:17:05.127
122, 0.00, 0.00, 385.74, 0.00, 0.000, 0.000, 0.000, 19:17:05.127
123, 0.00, 0.00, 490.66, 0.00, 0.000, 0.000, 0.000, 19:17:05.142
124, 0.00, 0.00, -371.19, 0.00, 0.000, 0.000, 0.000, 19:17:05.142
125, 0.00, 0.00, -18.66, 0.00, 0.000, 0.000, 0.000, 19:17:05.142
126, 0.00, 0.00, 586.08, 0.00, 0.000, 0.000, 0.000, 19:17:05.142
127, 0.00, 0.00, -195.91, 0.00, 0.000, 0.000, 0.000, 19:17:05.157
128, 0.00, 0.00, -347.21, 0.00, 0.000, 0.000, 0.000, 19:17:05.158
129, 0.00, 0.00, 444.32, 0.00, 0.000, 0.000, 0.000, 19:17:05.172
130, 0.00, 0.00, 61.54, 0.00, 0.000, 0.000, 0.000, 19:17:05.172
131, 0.00, 0.00, -565.88, 0.00, 0.000, 0.000, 0.000, 19:17:05.172
132, 0.00, 0.00, 197.15, 0.00, 0.000, 0.000, 0.000, 19:17:05.172
133, 0.00, 0.00, 319.42, 0.00, 0.000, 0.000, 0.000, 19:17:05.187
134, 0.00, 0.00, -507.30, 0.00, 0.000, 0.000, 0.000, 19:17:05.187
135, 0.00, 0.00, -123.29, 0.00, 0.000, 0.000, 0.000, 19:17:05.202
136, 0.00, 0.00, 472.76, 0.00, 0.000, 0.000, 0.000, 19:17:05.202
137, 0.00, 0.00, -261.16, 0.00, 0.000, 0.000, 0.000, 19:17:05.202
138, 0.00, 0.00, -404.49, 0.00, 0.000, 0.000, 0.000, 19:17:05.202
139, 0.00, 0.00, 447.85, 0.00, 0.000, 0.000, 0.000, 19:17:05.217
140, 0.00, 0.00, 89.35, 0.00, 0.000, 0.000, 0.000, 19:17:05.217
141, 0.00, 0.00, -530.35, 0.00, 0.000, 0.000, 0.000, 19:17:05.232
142, 0.00, 0.00, 235.52, 0.00, 0.000, 0.000, 0.000, 19:17:05.232
143, 0.00, 0.00, 383.84, 0.00, 0.000, 0.000, 0.000, 19:17:05.233
144, 0.00, 0.00, -450.67, 0.00, 0.000, 0.000, 0.000, 19:17:05.233
145, 0.00, 0.00, -74.75, 0.00, 0.000, 0.000, 0.000, 19:17:05.247
146, 0.00, 0.00, 547.26, 0.00, 0.000, 0.000, 0.000, 19:17:05.247
147, 0.00, 0.00, -207.13, 0.00, 0.000, 0.000, 0.000, 19:17:05.262
148, 0.00, 0.00, -342.84, 0.00, 0.000, 0.000, 0.000, 19:17:05.262
149, 0.00, 0.00, 527.05, 0.00, 0.000, 0.000, 0.000, 19:17:05.262
150, 0.00, 0.00, 125.85, 0.00, 0.000, 0.000, 0.000, 19:17:05.263
151, 0.00, 0.00, -494.32, 0.00, 0.000, 0.000, 0.000, 19:17:05.277
152, 0.00, 0.00, 293.19, 0.00, 0.000, 0.000, 0.000, 19:17:05.277
153, 0.00, 0.00, 417.12, 0.00, 0.000, 0.000, 0.000, 19:17:05.292
154, 0.00, 0.00, -431.25, 0.00, 0.000, 0.000, 0.000, 19:17:05.292
155, 0.00, 0.00, -24.06, 0.00, 0.000, 0.000, 0.000, 19:17:05.293
156, 0.00, 0.00, 580.23, 0.00, 0.000, 0.000, 0.000, 19:17:05.293
157, 0.00, 0.00, -191.45, 0.00, 0.000, 0.000, 0.000, 19:17:05.307
158, 0.00, 0.00, -353.13, 0.00, 0.000, 0.000, 0.000, 19:17:05.307
159, 0.00, 0.00, 520.35, 0.00, 0.000, 0.000, 0.000, 19:17:05.322
160, 0.00, 0.00, 161.00, 0.00, 0.000, 0.000, 0.000, 19:17:05.322
161, 0.00, 0.00, -492.26, 0.00, 0.000, 0.000, 0.000, 19:17:05.322
162, 0.00, 0.00, 272.87, 0.00, 0.000, 0.000, 0.000, 19:17:05.322
163, 0.00, 0.00, 443.20, 0.00, 0.000, 0.000, 0.000, 19:17:05.337
164, 0.00, 0.00, -437.29, 0.00, 0.000, 0.000, 0.000, 19:17:05.337
165, 0.00, 0.00, -44.30, 0.00, 0.000, 0.000, 0.000, 19:17:05.352
166, 0.00, 0.00, 587.14, 0.00, 0.000, 0.000, 0.000, 19:17:05.352
167, 0.00, 0.00, -201.92, 0.00, 0.000, 0.000, 0.000, 19:17:05.352
168, 0.00, 0.00, -344.03, 0.00, 0.000, 0.000, 0.000, 19:17:05.352
169, 0.00, 0.00, 537.24, 0.00, 0.000, 0.000, 0.000, 19:17:05.367
170, 0.00, 0.00, 147.33, 0.00, 0.000, 0.000, 0.000, 19:17:05.367
171, 0.00, 0.00, -469.39, 0.00, 0.000, 0.000, 0.000, 19:17:05.382
172, 0.00, 0.00, 299.46, 0.00, 0.000, 0.000, 0.000, 19:17:05.382
173, 0.00, 0.00, 431.65, 0.00, 0.000, 0.000, 0.000, 19:17:05.383
174, 0.00, 0.00, -415.08, 0.00, 0.000, 0.000, 0.000, 19:17:05.384
175, 0.00, 0.00, -18.97, 0.00, 0.000, 0.000, 0.000, 19:17:05.397
176, 0.00, 0.00, 630.04, 0.00, 0.000, 0.000, 0.000, 19:17:05.397
177, 0.00, 0.00, -166.97, 0.00, 0.000, 0.000, 0.000, 19:17:05.412
178, 0.00, 0.00, -341.71, 0.00, 0.000, 0.000, 0.000, 19:17:05.412
179, 0.00, 0.00, 498.81, 0.00, 0.000, 0.000, 0.000, 19:17:05.412
180, 0.00, 0.00, 131.30, 0.00, 0.000, 0.000, 0.000, 19:17:05.412
181, 0.00, 0.00, -466.63, 0.00, 0.000, 0.000, 0.000, 19:17:05.427
182, 0.00, 0.00, 277.99, 0.00, 0.000, 0.000, 0.000, 19:17:05.427
183, 0.00, 0.00, 429.31, 0.00, 0.000, 0.000, 0.000, 19:17:05.442
184, 0.00, 0.00, -429.13, 0.00, 0.000, 0.000, 0.000, 19:17:05.442
185, 0.00, 0.00, -38.68, 0.00, 0.000, 0.000, 0.000, 19:17:05.443
186, 0.00, 0.00, 578.66, 0.00, 0.000, 0.000, 0.000, 19:17:05.443
187, 0.00, 0.00, -155.24, 0.00, 0.000, 0.000, 0.000, 19:17:05.457
188, 0.00, 0.00, -349.88, 0.00, 0.000, 0.000, 0.000, 19:17:05.457
189, 0.00, 0.00, 527.29, 0.00, 0.000, 0.000, 0.000, 19:17:05.472
190, 0.00, 0.00, 105.43, 0.00, 0.000, 0.000, 0.000, 19:17:05.472
191, 0.00, 0.00, -520.79, 0.00, 0.000, 0.000, 0.000, 19:17:05.473
192, 0.00, 0.00, 396.09, 0.00, 0.000, 0.000, 0.000, 19:17:05.473
193, 0.00, 0.00, 698.44, 0.00, 0.000, 0.000, 0.000, 19:17:05.487
194, 0.00, 0.00, -66.25, 0.00, 0.000, 0.000, 0.000, 19:17:05.487
195, 0.00, 0.00, 392.18, 0.00, 0.000, 0.000, 0.000, 19:17:05.502
196, 0.00, 0.00, 943.66, 0.00, 0.000, 0.000, 0.000, 19:17:05.502
197, 0.00, 0.00, 850.66, 0.00, 0.000, 0.000, 0.000, 19:17:05.502
198, 0.00, 0.00, 455.83, 0.00, 0.000, 0.000, 0.000, 19:17:05.503
199, 0.00, 0.00, 1264.39, 0.00, 0.000, 0.000, 0.000, 19:17:05.518
200, 0.00, 0.00, 993.69, 0.00, 0.000, 0.000, 0.000, 19:17:05.518
0, 0.00, 0.00, -517.28, 0.00, 0.000, 0.000, 0.000, 19:17:05.518
1, 0.00, 0.00, 269.84, 0.00, 0.000, 0.000, 0.000, 19:17:05.532
2, 0.00, 0.00, 389.89, 0.00, 0.000, 0.000, 0.000, 19:17:05.532
3, 0.00, 0.00, -468.65, 0.00, 0.000, 0.000, 0.000, 19:17:05.547
4, 0.00, 0.00, -109.57, 0.00, 0.000, 0.000, 0.000, 19:17:05.547
5, 0.00, 0.00, 537.06, 0.00, 0.000, 0.000, 0.000, 19:17:05.547
6, 0.00, 0.00, -206.64, 0.00, 0.000, 0.000, 0.000, 19:17:05.548
7, 0.00, 0.00, -364.08, 0.00, 0.000, 0.000, 0.000, 19:17:05.562
8, 0.00, 0.00, 539.11, 0.00, 0.000, 0.000, 0.000, 19:17:05.562
9, 0.00, 0.00, 133.06, 0.00, 0.000, 0.000, 0.000, 19:17:05.577
10, 0.00, 0.00, -500.22, 0.00, 0.000, 0.000, 0.000, 19:17:05.577
11, 0.00, 0.00, 291.77, 0.00, 0.000, 0.000, 0.000, 19:17:05.578
12, 0.00, 0.00, 434.95, 0.00, 0.000, 0.000, 0.000, 19:17:05.578
13, 0.00, 0.00, -429.57, 0.00, 0.000, 0.000, 0.000, 19:17:05.592
14, 0.00, 0.00, -50.34, 0.00, 0.000, 0.000, 0.000, 19:17:05.592
15, 0.00, 0.00, 595.62, 0.00, 0.000, 0.000, 0.000, 19:17:05.607
16, 0.00, 0.00, -152.32, 0.00, 0.000, 0.000, 0.000, 19:17:05.607
17, 0.00, 0.00, -305.44, 0.00, 0.000, 0.000, 0.000, 19:17:05.607
18, 0.00, 0.00, 555.00, 0.00, 0.000, 0.000, 0.000, 19:17:05.607
19, 0.00, 0.00, 166.34, 0.00, 0.000, 0.000, 0.000, 19:17:05.622
20, 0.00, 0.00, -439.69, 0.00, 0.000, 0.000, 0.000, 19:17:05.622
21, 0.00, 0.00, 313.72, 0.00, 0.000, 0.000, 0.000, 19:17:05.637
22, 0.00, 0.00, 477.84, 0.00, 0.000, 0.000, 0.000, 19:17:05.637
23, 0.00, 0.00, -382.12, 0.00, 0.000, 0.000, 0.000, 19:17:05.637
24, 0.00, 0.00, 11.46, 0.00, 0.000, 0.000, 0.000, 19:17:05.637
25, 0.00, 0.00, 646.98, 0.00, 0.000, 0.000, 0.000, 19:17:05.652
26, 0.00, 0.00, -158.87, 0.00, 0.000, 0.000, 0.000, 19:17:05.652
27, 0.00, 0.00, -277.95, 0.00, 0.000, 0.000, 0.000, 19:17:05.667
28, 0.00, 0.00, 584.51, 0.00, 0.000, 0.000, 0.000, 19:17:05.668
29, 0.00, 0.00, 164.92, 0.00, 0.000, 0.000, 0.000, 19:17:05.668
30, 0.00, 0.00, -453.34, 0.00, 0.000, 0.000, 0.000, 19:17:05.668
31, 0.00, 0.00, 336.43, 0.00, 0.000, 0.000, 0.000, 19:17:05.682
32, 0.00, 0.00, 502.94, 0.00, 0.000, 0.000, 0.000, 19:17:05.682
33, 0.00, 0.00, -324.90, 0.00, 0.000, 0.000, 0.000, 19:17:05.697
34, 0.00, 0.00, 65.78, 0.00, 0.000, 0.000, 0.000, 19:17:05.697
35, 0.00, 0.00, 693.43, 0.00, 0.000, 0.000, 0.000, 19:17:05.697
36, 0.00, 0.00, -72.53, 0.00, 0.000, 0.000, 0.000, 19:17:05.697
37, 0.00, 0.00, -253.29, 0.00, 0.000, 0.000, 0.000, 19:17:05.712
38, 0.00, 0.00, 585.27, 0.00, 0.000, 0.000, 0.000, 19:17:05.712
39, 0.00, 0.00, 193.14, 0.00, 0.000, 0.000, 0.000, 19:17:05.727
40, 0.00, 0.00, -438.21, 0.00, 0.000, 0.000, 0.000, 19:17:05.727
41, 0.00, 0.00, 335.03, 0.00, 0.000, 0.000, 0.000, 19:17:05.727
42, 0.00, 0.00, 579.04, 0.00, 0.000, 0.000, 0.000, 19:17:05.728
43, 0.00, 0.00, -109.81, 0.00, 0.000, 0.000, 0.000, 19:17:05.742
44, 0.00, 0.00, 128.51, 0.00, 0.000, 0.000, 0.000, 19:17:05.742
45, 0.00, 0.00, 599.56, 0.00, 0.000, 0.000, 0.000, 19:17:05.757
46, 0.00, 0.00, -280.43, 0.00, 0.000, 0.000, 0.000, 19:17:05.757
47, 0.00, 0.00, -486.86, 0.00, 0.000, 0.000, 0.000, 19:17:05.758
48, 0.00, 0.00, 340.13, 0.00, 0.000, 0.000, 0.000, 19:17:05.758
49, 0.00, 0.00, -35.06, 0.00, 0.000, 0.000, 0.000, 19:17:05.772
50, 0.00, 0.00, -664.02, 0.00, 0.000, 0.000, 0.000, 19:17:05.772
51, 0.00, 0.00, 131.12, 0.00, 0.000, 0.000, 0.000, 19:17:05.787
52, 0.00, 0.00, 278.16, 0.00, 0.000, 0.000, 0.000, 19:17:05.787
53, 0.00, 0.00, -578.55, 0.00, 0.000, 0.000, 0.000, 19:17:05.787
54, 0.00, 0.00, -164.14, 0.00, 0.000, 0.000, 0.000, 19:17:05.788
55, 0.00, 0.00, 505.24, 0.00, 0.000, 0.000, 0.000, 19:17:05.802
56, 0.00, 0.00, -287.73, 0.00, 0.000, 0.000, 0.000, 19:17:05.802
57, 0.00, 0.00, -422.95, 0.00, 0.000, 0.000, 0.000, 19:17:05.817
58, 0.00, 0.00, 469.39, 0.00, 0.000, 0.000, 0.000, 19:17:05.817
59, 0.00, 0.00, 104.21, 0.00, 0.000, 0.000, 0.000, 19:17:05.817
60, 0.00, 0.00, -545.94, 0.00, 0.000, 0.000, 0.000, 19:17:05.817
61, 0.00, 0.00, 259.56, 0.00, 0.000, 0.000, 0.000, 19:17:05.832
62, 0.00, 0.00, 416.31, 0.00, 0.000, 0.000, 0.000, 19:17:05.833
63, 0.00, 0.00, -463.18, 0.00, 0.000, 0.000, 0.000, 19:17:05.847
64, 0.00, 0.00, -68.69, 0.00, 0.000, 0.000, 0.000, 19:17:05.847
65, 0.00, 0.00, 572.65, 0.00, 0.000, 0.000, 0.000, 19:17:05.847
66, 0.00, 0.00, -196.61, 0.00, 0.000, 0.000, 0.000, 19:17:05.847
67, 0.00, 0.00, -339.87, 0.00, 0.000, 0.000, 0.000, 19:17:05.862
68, 0.00, 0.00, 514.65, 0.00, 0.000, 0.000, 0.000, 19:17:05.862
69, 0.00, 0.00, 157.01, 0.00, 0.000, 0.000, 0.000, 19:17:05.877
70, 0.00, 0.00, -493.13, 0.00, 0.000, 0.000, 0.000, 19:17:05.877
71, 0.00, 0.00, 265.91, 0.00, 0.000, 0.000, 0.000, 19:17:05.877
72, 0.00, 0.00, 441.95, 0.00, 0.000, 0.000, 0.000, 19:17:05.878
73, 0.00, 0.00, -404.96, 0.00, 0.000, 0.000, 0.000, 19:17:05.892
74, 0.00, 0.00, -55.09, 0.00, 0.000, 0.000, 0.000, 19:17:05.892
75, 0.00, 0.00, 584.16, 0.00, 0.000, 0.000, 0.000, 19:17:05.907
76, 0.00, 0.00, -178.68, 0.00, 0.000, 0.000, 0.000, 19:17:05.907
77, 0.00, 0.00, -337.55, 0.00, 0.000, 0.000, 0.000, 19:17:05.908
78, 0.00, 0.00, 526.05, 0.00, 0.000, 0.000, 0.000, 19:17:05.908
79, 0.00, 0.00, 148.28, 0.00, 0.000, 0.000, 0.000, 19:17:05.922
80, 0.00, 0.00, -489.94, 0.00, 0.000, 0.000, 0.000, 19:17:05.922
81, 0.00, 0.00, 280.48, 0.00, 0.000, 0.000, 0.000, 19:17:05.937
82, 0.00, 0.00, 457.58, 0.00, 0.000, 0.000, 0.000, 19:17:05.937
83, 0.00, 0.00, -434.82, 0.00, 0.000, 0.000, 0.000, 19:17:05.937
84, 0.00, 0.00, -47.53, 0.00, 0.000, 0.000, 0.000, 19:17:05.938
85, 0.00, 0.00, 599.24, 0.00, 0.000, 0.000, 0.000, 19:17:05.952
86, 0.00, 0.00, -195.44, 0.00, 0.000, 0.000, 0.000, 19:17:05.952
87, 0.00, 0.00, -329.86, 0.00, 0.000, 0.000, 0.000, 19:17:05.967
88, 0.00, 0.00, 554.01, 0.00, 0.000, 0.000, 0.000, 19:17:05.967
89, 0.00, 0.00, 178.95, 0.00, 0.000, 0.000, 0.000, 19:17:05.967
90, 0.00, 0.00, -464.35, 0.00, 0.000, 0.000, 0.000, 19:17:05.967
91, 0.00, 0.00, 290.83, 0.00, 0.000, 0.000, 0.000, 19:17:05.982
92, 0.00, 0.00, 447.00, 0.00, 0.000, 0.000, 0.000, 19:17:05.982
93, 0.00, 0.00, -423.95, 0.00, 0.000, 0.000, 0.000, 19:17:05.997
94, 0.00, 0.00, -31.81, 0.00, 0.000, 0.000, 0.000, 19:17:05.997
95, 0.00, 0.00, 561.80, 0.00, 0.000, 0.000, 0.000, 19:17:05.997
96, 0.00, 0.00, -182.91, 0.00, 0.000, 0.000, 0.000, 19:17:05.997
97, 0.00, 0.00, -340.25, 0.00, 0.000, 0.000, 0.000, 19:17:06.012
98, 0.00, 0.00, 533.22, 0.00, 0.000, 0.000, 0.000, 19:17:06.012
99, 0.00, 0.00, 151.01, 0.00, 0.000, 0.000, 0.000, 19:17:06.027
100, 0.00, 0.00, -492.51, 0.00, 0.000, 0.000, 0.000, 19:17:06.027
101, 0.00, 0.00, 273.14, 0.00, 0.000, 0.000, 0.000, 19:17:06.027
102, 0.00, 0.00, 462.93, 0.00, 0.000, 0.000, 0.000, 19:17:06.027
103, 0.00, 0.00, -434.69, 0.00, 0.000, 0.000, 0.000, 19:17:06.042
104, 0.00, 0.00, -60.60, 0.00, 0.000, 0.000, 0.000, 19:17:06.042
105, 0.00, 0.00, 576.09, 0.00, 0.000, 0.000, 0.000, 19:17:06.057
106, 0.00, 0.00, -139.92, 0.00, 0.000, 0.000, 0.000, 19:17:06.057
107, 0.00, 0.00, -204.69, 0.00, 0.000, 0.000, 0.000, 19:17:06.057
108, 0.00, 0.00, -189.00, 0.00, 0.000, 0.000, 0.000, 19:17:06.057
109, 0.00, 0.00, -416.21, 0.00, 0.000, 0.000, 0.000, 19:17:06.072
110, 0.00, 0.00, -1037.76, 0.00, 0.000, 0.000, 0.000, 19:17:06.072
111, 0.00, 0.00, -454.25, 0.00, 0.000, 0.000, 0.000, 19:17:06.087
112, 0.00, 0.00, -567.11, 0.00, 0.000, 0.000, 0.000, 19:17:06.087
113, 0.00, 0.00, -684.06, 0.00, 0.000, 0.000, 0.000, 19:17:06.087
114, 0.00, 0.00, -285.17, 0.00, 0.000, 0.000, 0.000, 19:17:06.087
115, 0.00, 0.00, 512.95, 0.00, 0.000, 0.000, 0.000, 19:17:06.102
116, 0.00, 0.00, -180.95, 0.00, 0.000, 0.000, 0.000, 19:17:06.102
117, 0.00, 0.00, -388.76, 0.00, 0.000, 0.000, 0.000, 19:17:06.132
118, 0.00, 0.00, 475.19, 0.00, 0.000, 0.000, 0.000, 19:17:06.132
119, 0.00, 0.00, 95.14, 0.00, 0.000, 0.000, 0.000, 19:17:06.132
120, 0.00, 0.00, -522.77, 0.00, 0.000, 0.000, 0.000, 19:17:06.132
121, 0.00, 0.00, 243.18, 0.00, 0.000, 0.000, 0.000, 19:17:06.133
122, 0.00, 0.00, 432.09, 0.00, 0.000, 0.000, 0.000, 19:17:06.133
123, 0.00, 0.00, -441.06, 0.00, 0.000, 0.000, 0.000, 19:17:06.147
124, 0.00, 0.00, -70.48, 0.00, 0.000, 0.000, 0.000, 19:17:06.147
125, 0.00, 0.00, 560.93, 0.00, 0.000, 0.000, 0.000, 19:17:06.147
126, 0.00, 0.00, -163.62, 0.00, 0.000, 0.000, 0.000, 19:17:06.148
127, 0.00, 0.00, -326.90, 0.00, 0.000, 0.000, 0.000, 19:17:06.162
128, 0.00, 0.00, 527.20, 0.00, 0.000, 0.000, 0.000, 19:17:06.162
129, 0.00, 0.00, 149.63, 0.00, 0.000, 0.000, 0.000, 19:17:06.177
130, 0.00, 0.00, -466.31, 0.00, 0.000, 0.000, 0.000, 19:17:06.177
131, 0.00, 0.00, 281.17, 0.00, 0.000, 0.000, 0.000, 19:17:06.177
132, 0.00, 0.00, 480.48, 0.00, 0.000, 0.000, 0.000, 19:17:06.177
133, 0.00, 0.00, -395.37, 0.00, 0.000, 0.000, 0.000, 19:17:06.192
134, 0.00, 0.00, -30.96, 0.00, 0.000, 0.000, 0.000, 19:17:06.193
135, 0.00, 0.00, 620.03, 0.00, 0.000, 0.000, 0.000, 19:17:06.207
136, 0.00, 0.00, -131.49, 0.00, 0.000, 0.000, 0.000, 19:17:06.207
137, 0.00, 0.00, -296.05, 0.00, 0.000, 0.000, 0.000, 19:17:06.207
138, 0.00, 0.00, 538.75, 0.00, 0.000, 0.000, 0.000, 19:17:06.207
139, 0.00, 0.00, 208.69, 0.00, 0.000, 0.000, 0.000, 19:17:06.222
140, 0.00, 0.00, -426.46, 0.00, 0.000, 0.000, 0.000, 19:17:06.222
141, 0.00, 0.00, 327.57, 0.00, 0.000, 0.000, 0.000, 19:17:06.237
142, 0.00, 0.00, 499.65, 0.00, 0.000, 0.000, 0.000, 19:17:06.237
143, 0.00, 0.00, -360.73, 0.00, 0.000, 0.000, 0.000, 19:17:06.237
144, 0.00, 0.00, 25.41, 0.00, 0.000, 0.000, 0.000, 19:17:06.237
145, 0.00, 0.00, 647.27, 0.00, 0.000, 0.000, 0.000, 19:17:06.252
146, 0.00, 0.00, -83.67, 0.00, 0.000, 0.000, 0.000, 19:17:06.252
147, 0.00, 0.00, -262.85, 0.00, 0.000, 0.000, 0.000, 19:17:06.267
148, 0.00, 0.00, 602.60, 0.00, 0.000, 0.000, 0.000, 19:17:06.267
149, 0.00, 0.00, 245.74, 0.00, 0.000, 0.000, 0.000, 19:17:06.267
150, 0.00, 0.00, -392.36, 0.00, 0.000, 0.000, 0.000, 19:17:06.267
151, 0.00, 0.00, 344.22, 0.00, 0.000, 0.000, 0.000, 19:17:06.282
152, 0.00, 0.00, 528.52, 0.00, 0.000, 0.000, 0.000, 19:17:06.282
153, 0.00, 0.00, -343.87, 0.00, 0.000, 0.000, 0.000, 19:17:06.297
154, 0.00, 0.00, 8.95, 0.00, 0.000, 0.000, 0.000, 19:17:06.297
155, 0.00, 0.00, 633.29, 0.00, 0.000, 0.000, 0.000, 19:17:06.312
156, 0.00, 0.00, -169.37, 0.00, 0.000, 0.000, 0.000, 19:17:06.312
157, 0.00, 0.00, -330.56, 0.00, 0.000, 0.000, 0.000, 19:17:06.312
158, 0.00, 0.00, 501.73, 0.00, 0.000, 0.000, 0.000, 19:17:06.312
159, 0.00, 0.00, 93.04, 0.00, 0.000, 0.000, 0.000, 19:17:06.327
160, 0.00, 0.00, -552.20, 0.00, 0.000, 0.000, 0.000, 19:17:06.327
161, 0.00, 0.00, 168.47, 0.00, 0.000, 0.000, 0.000, 19:17:06.328
162, 0.00, 0.00, 357.10, 0.00, 0.000, 0.000, 0.000, 19:17:06.328
163, 0.00, 0.00, -517.65, 0.00, 0.000, 0.000, 0.000, 19:17:06.342
164, 0.00, 0.00, -152.75, 0.00, 0.000, 0.000, 0.000, 19:17:06.342
165, 0.00, 0.00, 498.09, 0.00, 0.000, 0.000, 0.000, 19:17:06.357
166, 0.00, 0.00, -250.98, 0.00, 0.000, 0.000, 0.000, 19:17:06.357
167, 0.00, 0.00, -417.38, 0.00, 0.000, 0.000, 0.000, 19:17:06.357
168, 0.00, 0.00, 452.84, 0.00, 0.000, 0.000, 0.000, 19:17:06.357
169, 0.00, 0.00, 95.30, 0.00, 0.000, 0.000, 0.000, 19:17:06.372
170, 0.00, 0.00, -530.22, 0.00, 0.000, 0.000, 0.000, 19:17:06.372
171, 0.00, 0.00, 211.73, 0.00, 0.000, 0.000, 0.000, 19:17:06.387
172, 0.00, 0.00, 392.15, 0.00, 0.000, 0.000, 0.000, 19:17:06.387
173, 0.00, 0.00, -461.04, 0.00, 0.000, 0.000, 0.000, 19:17:06.387
174, 0.00, 0.00, -107.73, 0.00, 0.000, 0.000, 0.000, 19:17:06.387
175, 0.00, 0.00, 572.54, 0.00, 0.000, 0.000, 0.000, 19:17:06.402
176, 0.00, 0.00, -170.58, 0.00, 0.000, 0.000, 0.000, 19:17:06.402
177, 0.00, 0.00, -358.33, 0.00, 0.000, 0.000, 0.000, 19:17:06.417
178, 0.00, 0.00, 501.44, 0.00, 0.000, 0.000, 0.000, 19:17:06.417
179, 0.00, 0.00, 163.14, 0.00, 0.000, 0.000, 0.000, 19:17:06.417
180, 0.00, 0.00, -493.77, 0.00, 0.000, 0.000, 0.000, 19:17:06.417
181, 0.00, 0.00, 263.41, 0.00, 0.000, 0.000, 0.000, 19:17:06.432
182, 0.00, 0.00, 434.64, 0.00, 0.000, 0.000, 0.000, 19:17:06.432
183, 0.00, 0.00, -407.45, 0.00, 0.000, 0.000, 0.000, 19:17:06.447
184, 0.00, 0.00, -58.84, 0.00, 0.000, 0.000, 0.000, 19:17:06.447
185, 0.00, 0.00, 594.84, 0.00, 0.000, 0.000, 0.000, 19:17:06.447
186, 0.00, 0.00, -177.05, 0.00, 0.000, 0.000, 0.000, 19:17:06.447
187, 0.00, 0.00, -346.23, 0.00, 0.000, 0.000, 0.000, 19:17:06.462
188, 0.00, 0.00, 519.70, 0.00, 0.000, 0.000, 0.000, 19:17:06.462
189, 0.00, 0.00, 139.70, 0.00, 0.000, 0.000, 0.000, 19:17:06.477
190, 0.00, 0.00, -468.02, 0.00, 0.000, 0.000, 0.000, 19:17:06.477
191, 0.00, 0.00, 284.11, 0.00, 0.000, 0.000, 0.000, 19:17:06.477
192, 0.00, 0.00, 437.27, 0.00, 0.000, 0.000, 0.000, 19:17:06.478
193, 0.00, 0.00, -436.91, 0.00, 0.000, 0.000, 0.000, 19:17:06.492
194, 0.00, 0.00, -170.06, 0.00, 0.000, 0.000, 0.000, 19:17:06.492
195, 0.00, 0.00, 500.63, 0.00, 0.000, 0.000, 0.000, 19:17:06.507
196, 0.00, 0.00, -174.60, 0.00, 0.000, 0.000, 0.000, 19:17:06.507
197, 0.00, 0.00, -368.17, 0.00, 0.000, 0.000, 0.000, 19:17:06.508
198, 0.00, 0.00, 520.78, 0.00, 0.000, 0.000, 0.000, 19:17:06.508
199, 0.00, 0.00, 170.59, 0.00, 0.000, 0.000, 0.000, 19:17:06.522
200, 0.00, 0.00, -453.66, 0.00, 0.000, 0.000, 0.000, 19:17:06.522
0, 0.00, 0.00, 294.81, 0.00, 0.000, 0.000, 0.000, 19:17:06.522
1, 0.00, 0.00, 477.14, 0.00, 0.000, 0.000, 0.000, 19:17:06.537
2, 0.00, 0.00, -353.37, 0.00, 0.000, 0.000, 0.000, 19:17:06.537
3, 0.00, 0.00, -2.60, 0.00, 0.000, 0.000, 0.000, 19:17:06.552
4, 0.00, 0.00, 643.67, 0.00, 0.000, 0.000, 0.000, 19:17:06.552
5, 0.00, 0.00, -11.86, 0.00, 0.000, 0.000, 0.000, 19:17:06.553
6, 0.00, 0.00, -16.26, 0.00, 0.000, 0.000, 0.000, 19:17:06.553
7, 0.00, 0.00, 819.27, 0.00, 0.000, 0.000, 0.000, 19:17:06.567
8, 0.00, 0.00, 313.91, 0.00, 0.000, 0.000, 0.000, 19:17:06.567
9, 0.00, 0.00, -450.64, 0.00, 0.000, 0.000, 0.000, 19:17:06.582
10, 0.00, 0.00, 209.60, 0.00, 0.000, 0.000, 0.000, 19:17:06.582
11, 0.00, 0.00, 340.29, 0.00, 0.000, 0.000, 0.000, 19:17:06.582
12, 0.00, 0.00, -498.51, 0.00, 0.000, 0.000, 0.000, 19:17:06.583
13, 0.00, 0.00, -152.15, 0.00, 0.000, 0.000, 0.000, 19:17:06.597
14, 0.00, 0.00, 496.12, 0.00, 0.000, 0.000, 0.000, 19:17:06.597
15, 0.00, 0.00, -224.04, 0.00, 0.000, 0.000, 0.000, 19:17:06.612
16, 0.00, 0.00, -417.60, 0.00, 0.000, 0.000, 0.000, 19:17:06.612
17, 0.00, 0.00, 438.82, 0.00, 0.000, 0.000, 0.000, 19:17:06.612
18, 0.00, 0.00, 92.31, 0.00, 0.000, 0.000, 0.000, 19:17:06.613
19, 0.00, 0.00, -547.61, 0.00, 0.000, 0.000, 0.000, 19:17:06.627
20, 0.00, 0.00, 211.15, 0.00, 0.000, 0.000, 0.000, 19:17:06.627
21, 0.00, 0.00, 440.50, 0.00, 0.000, 0.000, 0.000, 19:17:06.642
22, 0.00, 0.00, -296.41, 0.00, 0.000, 0.000, 0.000, 19:17:06.642
23, 0.00, 0.00, 199.22, 0.00, 0.000, 0.000, 0.000, 19:17:06.642
24, 0.00, 0.00, 927.19, 0.00, 0.000, 0.000, 0.000, 19:17:06.642
25, 0.00, 0.00, 245.10, 0.00, 0.000, 0.000, 0.000, 19:17:06.657
26, 0.00, 0.00, -53.69, 0.00, 0.000, 0.000, 0.000, 19:17:06.657
27, 0.00, 0.00, 498.03, 0.00, 0.000, 0.000, 0.000, 19:17:06.672
28, 0.00, 0.00, -95.78, 0.00, 0.000, 0.000, 0.000, 19:17:06.672
29, 0.00, 0.00, -727.19, 0.00, 0.000, 0.000, 0.000, 19:17:06.672
30, 0.00, 0.00, 174.04, 0.00, 0.000, 0.000, 0.000, 19:17:06.672
31, 0.00, 0.00, 411.24, 0.00, 0.000, 0.000, 0.000, 19:17:06.687
32, 0.00, 0.00, -462.14, 0.00, 0.000, 0.000, 0.000, 19:17:06.688
33, 0.00, 0.00, -128.07, 0.00, 0.000, 0.000, 0.000, 19:17:06.702
34, 0.00, 0.00, 525.53, 0.00, 0.000, 0.000, 0.000, 19:17:06.702
35, 0.00, 0.00, -237.78, 0.00, 0.000, 0.000, 0.000, 19:17:06.702
36, 0.00, 0.00, -379.47, 0.00, 0.000, 0.000, 0.000, 19:17:06.702
37, 0.00, 0.00, 506.99, 0.00, 0.000, 0.000, 0.000, 19:17:06.717
38, 0.00, 0.00, 151.23, 0.00, 0.000, 0.000, 0.000, 19:17:06.717
39, 0.00, 0.00, -501.76, 0.00, 0.000, 0.000, 0.000, 19:17:06.732
40, 0.00, 0.00, 269.36, 0.00, 0.000, 0.000, 0.000, 19:17:06.732
41, 0.00, 0.00, 429.55, 0.00, 0.000, 0.000, 0.000, 19:17:06.732
42, 0.00, 0.00, -391.17, 0.00, 0.000, 0.000, 0.000, 19:17:06.732
43, 0.00, 0.00, -52.43, 0.00, 0.000, 0.000, 0.000, 19:17:06.747
44, 0.00, 0.00, 591.58, 0.00, 0.000, 0.000, 0.000, 19:17:06.747
45, 0.00, 0.00, -173.43, 0.00, 0.000, 0.000, 0.000, 19:17:06.762
46, 0.00, 0.00, -339.79, 0.00, 0.000, 0.000, 0.000, 19:17:06.762
47, 0.00, 0.00, 558.67, 0.00, 0.000, 0.000, 0.000, 19:17:06.762
48, 0.00, 0.00, 170.04, 0.00, 0.000, 0.000, 0.000, 19:17:06.763
49, 0.00, 0.00, -455.33, 0.00, 0.000, 0.000, 0.000, 19:17:06.777
50, 0.00, 0.00, 261.73, 0.00, 0.000, 0.000, 0.000, 19:17:06.777
51, 0.00, 0.00, 494.14, 0.00, 0.000, 0.000, 0.000, 19:17:06.792
52, 0.00, 0.00, -344.19, 0.00, 0.000, 0.000, 0.000, 19:17:06.792
53, 0.00, 0.00, -43.05, 0.00, 0.000, 0.000, 0.000, 19:17:06.792
54, 0.00, 0.00, 629.47, 0.00, 0.000, 0.000, 0.000, 19:17:06.793
55, 0.00, 0.00, -106.37, 0.00, 0.000, 0.000, 0.000, 19:17:06.807
56, 0.00, 0.00, -287.53, 0.00, 0.000, 0.000, 0.000, 19:17:06.807
57, 0.00, 0.00, 585.80, 0.00, 0.000, 0.000, 0.000, 19:17:06.822
58, 0.00, 0.00, 233.24, 0.00, 0.000, 0.000, 0.000, 19:17:06.822
59, 0.00, 0.00, -423.41, 0.00, 0.000, 0.000, 0.000, 19:17:06.822
60, 0.00, 0.00, 331.80, 0.00, 0.000, 0.000, 0.000, 19:17:06.822
61, 0.00, 0.00, 534.64, 0.00, 0.000, 0.000, 0.000, 19:17:06.837
62, 0.00, 0.00, -356.47, 0.00, 0.000, 0.000, 0.000, 19:17:06.837
63, 0.00, 0.00, 7.30, 0.00, 0.000, 0.000, 0.000, 19:17:06.852
64, 0.00, 0.00, 678.21, 0.00, 0.000, 0.000, 0.000, 19:17:06.852
65, 0.00, 0.00, -82.38, 0.00, 0.000, 0.000, 0.000, 19:17:06.852
66, 0.00, 0.00, -264.00, 0.00, 0.000, 0.000, 0.000, 19:17:06.852
67, 0.00, 0.00, 594.26, 0.00, 0.000, 0.000, 0.000, 19:17:06.867
68, 0.00, 0.00, 248.38, 0.00, 0.000, 0.000, 0.000, 19:17:06.867
69, 0.00, 0.00, -437.76, 0.00, 0.000, 0.000, 0.000, 19:17:06.882
70, 0.00, 0.00, 302.89, 0.00, 0.000, 0.000, 0.000, 19:17:06.882
71, 0.00, 0.00, 477.61, 0.00, 0.000, 0.000, 0.000, 19:17:06.882
72, 0.00, 0.00, -405.26, 0.00, 0.000, 0.000, 0.000, 19:17:06.882
73, 0.00, 0.00, -108.20, 0.00, 0.000, 0.000, 0.000, 19:17:06.897
74, 0.00, 0.00, 549.18, 0.00, 0.000, 0.000, 0.000, 19:17:06.897
75, 0.00, 0.00, -234.39, 0.00, 0.000, 0.000, 0.000, 19:17:06.912
76, 0.00, 0.00, -451.08, 0.00, 0.000, 0.000, 0.000, 19:17:06.912
77, 0.00, 0.00, 432.30, 0.00, 0.000, 0.000, 0.000, 19:17:06.912
78, 0.00, 0.00, 71.50, 0.00, 0.000, 0.000, 0.000, 19:17:06.912
79, 0.00, 0.00, -576.47, 0.00, 0.000, 0.000, 0.000, 19:17:06.927
80, 0.00, 0.00, 170.17, 0.00, 0.000, 0.000, 0.000, 19:17:06.927
81, 0.00, 0.00, 398.30, 0.00, 0.000, 0.000, 0.000, 19:17:06.942
82, 0.00, 0.00, -469.63, 0.00, 0.000, 0.000, 0.000, 19:17:06.942
83, 0.00, 0.00, -171.84, 0.00, 0.000, 0.000, 0.000, 19:17:06.943
84, 0.00, 0.00, 512.20, 0.00, 0.000, 0.000, 0.000, 19:17:06.943
85, 0.00, 0.00, -215.69, 0.00, 0.000, 0.000, 0.000, 19:17:06.957
86, 0.00, 0.00, -401.89, 0.00, 0.000, 0.000, 0.000, 19:17:06.957
87, 0.00, 0.00, 455.41, 0.00, 0.000, 0.000, 0.000, 19:17:06.972
88, 0.00, 0.00, 137.76, 0.00, 0.000, 0.000, 0.000, 19:17:06.972
89, 0.00, 0.00, -501.77, 0.00, 0.000, 0.000, 0.000, 19:17:06.972
90, 0.00, 0.00, 222.30, 0.00, 0.000, 0.000, 0.000, 19:17:06.973
91, 0.00, 0.00, 440.75, 0.00, 0.000, 0.000, 0.000, 19:17:06.987
92, 0.00, 0.00, -437.01, 0.00, 0.000, 0.000, 0.000, 19:17:06.987
93, 0.00, 0.00, -90.27, 0.00, 0.000, 0.000, 0.000, 19:17:07.002
94, 0.00, 0.00, 561.90, 0.00, 0.000, 0.000, 0.000, 19:17:07.002
95, 0.00, 0.00, -160.76, 0.00, 0.000, 0.000, 0.000, 19:17:07.003
96, 0.00, 0.00, -345.42, 0.00, 0.000, 0.000, 0.000, 19:17:07.003
97, 0.00, 0.00, 502.17, 0.00, 0.000, 0.000, 0.000, 19:17:07.017
98, 0.00, 0.00, 173.43, 0.00, 0.000, 0.000, 0.000, 19:17:07.017
99, 0.00, 0.00, -471.93, 0.00, 0.000, 0.000, 0.000, 19:17:07.032
100, 0.00, 0.00, 267.31, 0.00, 0.000, 0.000, 0.000, 19:17:07.032
101, 0.00, 0.00, 458.32, 0.00, 0.000, 0.000, 0.000, 19:17:07.032
102, 0.00, 0.00, -420.06, 0.00, 0.000, 0.000, 0.000, 19:17:07.032
103, 0.00, 0.00, -63.11, 0.00, 0.000, 0.000, 0.000, 19:17:07.047
104, 0.00, 0.00, 585.44, 0.00, 0.000, 0.000, 0.000, 19:17:07.047
105, 0.00, 0.00, -172.02, 0.00, 0.000, 0.000, 0.000, 19:17:07.062
106, 0.00, 0.00, -348.88, 0.00, 0.000, 0.000, 0.000, 19:17:07.062
107, 0.00, 0.00, 511.49, 0.00, 0.000, 0.000, 0.000, 19:17:07.062
108, 0.00, 0.00, 192.12, 0.00, 0.000, 0.000, 0.000, 19:17:07.062
109, 0.00, 0.00, -479.40, 0.00, 0.000, 0.000, 0.000, 19:17:07.077
110, 0.00, 0.00, 260.44, 0.00, 0.000, 0.000, 0.000, 19:17:07.077
111, 0.00, 0.00, 449.64, 0.00, 0.000, 0.000, 0.000, 19:17:07.092
112, 0.00, 0.00, -412.19, 0.00, 0.000, 0.000, 0.000, 19:17:07.092
113, 0.00, 0.00, -71.42, 0.00, 0.000, 0.000, 0.000, 19:17:07.092
114, 0.00, 0.00, 581.08, 0.00, 0.000, 0.000, 0.000, 19:17:07.093
115, 0.00, 0.00, -144.70, 0.00, 0.000, 0.000, 0.000, 19:17:07.107
116, 0.00, 0.00, -349.04, 0.00, 0.000, 0.000, 0.000, 19:17:07.107
117, 0.00, 0.00, 479.49, 0.00, 0.000, 0.000, 0.000, 19:17:07.122
118, 0.00, 0.00, 195.91, 0.00, 0.000, 0.000, 0.000, 19:17:07.123
119, 0.00, 0.00, -470.34, 0.00, 0.000, 0.000, 0.000, 19:17:07.123
120, 0.00, 0.00, 278.86, 0.00, 0.000, 0.000, 0.000, 19:17:07.123
121, 0.00, 0.00, 496.95, 0.00, 0.000, 0.000, 0.000, 19:17:07.137
122, 0.00, 0.00, -385.46, 0.00, 0.000, 0.000, 0.000, 19:17:07.137
123, 0.00, 0.00, -84.28, 0.00, 0.000, 0.000, 0.000, 19:17:07.152
124, 0.00, 0.00, 587.74, 0.00, 0.000, 0.000, 0.000, 19:17:07.152
125, 0.00, 0.00, -134.05, 0.00, 0.000, 0.000, 0.000, 19:17:07.152
126, 0.00, 0.00, -333.71, 0.00, 0.000, 0.000, 0.000, 19:17:07.153
127, 0.00, 0.00, 509.22, 0.00, 0.000, 0.000, 0.000, 19:17:07.167
128, 0.00, 0.00, 168.98, 0.00, 0.000, 0.000, 0.000, 19:17:07.167
129, 0.00, 0.00, -499.53, 0.00, 0.000, 0.000, 0.000, 19:17:07.182
130, 0.00, 0.00, 264.62, 0.00, 0.000, 0.000, 0.000, 19:17:07.182
131, 0.00, 0.00, 479.72, 0.00, 0.000, 0.000, 0.000, 19:17:07.182
132, 0.00, 0.00, -434.21, 0.00, 0.000, 0.000, 0.000, 19:17:07.183
133, 0.00, 0.00, -81.44, 0.00, 0.000, 0.000, 0.000, 19:17:07.197
134, 0.00, 0.00, 592.41, 0.00, 0.000, 0.000, 0.000, 19:17:07.197
135, 0.00, 0.00, -139.56, 0.00, 0.000, 0.000, 0.000, 19:17:07.212
136, 0.00, 0.00, -349.54, 0.00, 0.000, 0.000, 0.000, 19:17:07.212
137, 0.00, 0.00, 508.87, 0.00, 0.000, 0.000, 0.000, 19:17:07.212
138, 0.00, 0.00, 188.53, 0.00, 0.000, 0.000, 0.000, 19:17:07.212
139, 0.00, 0.00, -521.15, 0.00, 0.000, 0.000, 0.000, 19:17:07.227
140, 0.00, 0.00, 223.35, 0.00, 0.000, 0.000, 0.000, 19:17:07.227
141, 0.00, 0.00, 533.79, 0.00, 0.000, 0.000, 0.000, 19:17:07.242
142, 0.00, 0.00, -167.33, 0.00, 0.000, 0.000, 0.000, 19:17:07.242
143, 0.00, 0.00, 254.79, 0.00, 0.000, 0.000, 0.000, 19:17:07.242
144, 0.00, 0.00, 1017.22, 0.00, 0.000, 0.000, 0.000, 19:17:07.243
145, 0.00, 0.00, 213.13, 0.00, 0.000, 0.000, 0.000, 19:17:07.257
146, 0.00, 0.00, -273.84, 0.00, 0.000, 0.000, 0.000, 19:17:07.258
147, 0.00, 0.00, 333.80, 0.00, 0.000, 0.000, 0.000, 19:17:07.273
148, 0.00, 0.00, -61.04, 0.00, 0.000, 0.000, 0.000, 19:17:07.273
149, 0.00, 0.00, -602.89, 0.00, 0.000, 0.000, 0.000, 19:17:07.273
150, 0.00, 0.00, 222.26, 0.00, 0.000, 0.000, 0.000, 19:17:07.273
151, 0.00, 0.00, 409.85, 0.00, 0.000, 0.000, 0.000, 19:17:07.287
152, 0.00, 0.00, -448.86, 0.00, 0.000, 0.000, 0.000, 19:17:07.287
153, 0.00, 0.00, -130.16, 0.00, 0.000, 0.000, 0.000, 19:17:07.302
154, 0.00, 0.00, 534.47, 0.00, 0.000, 0.000, 0.000, 19:17:07.302
155, 0.00, 0.00, -186.20, 0.00, 0.000, 0.000, 0.000, 19:17:07.302
156, 0.00, 0.00, -392.68, 0.00, 0.000, 0.000, 0.000, 19:17:07.303
157, 0.00, 0.00, 462.68, 0.00, 0.000, 0.000, 0.000, 19:17:07.317
158, 0.00, 0.00, 166.09, 0.00, 0.000, 0.000, 0.000, 19:17:07.317
159, 0.00, 0.00, -507.69, 0.00, 0.000, 0.000, 0.000, 19:17:07.332
160, 0.00, 0.00, 257.01, 0.00, 0.000, 0.000, 0.000, 19:17:07.332
161, 0.00, 0.00, 482.91, 0.00, 0.000, 0.000, 0.000, 19:17:07.333
162, 0.00, 0.00, -401.82, 0.00, 0.000, 0.000, 0.000, 19:17:07.333
163, 0.00, 0.00, -91.91, 0.00, 0.000, 0.000, 0.000, 19:17:07.347
164, 0.00, 0.00, 594.30, 0.00, 0.000, 0.000, 0.000, 19:17:07.347
165, 0.00, 0.00, -125.05, 0.00, 0.000, 0.000, 0.000, 19:17:07.362
166, 0.00, 0.00, -333.03, 0.00, 0.000, 0.000, 0.000, 19:17:07.362
167, 0.00, 0.00, 524.47, 0.00, 0.000, 0.000, 0.000, 19:17:07.362
168, 0.00, 0.00, 215.81, 0.00, 0.000, 0.000, 0.000, 19:17:07.363
169, 0.00, 0.00, -453.20, 0.00, 0.000, 0.000, 0.000, 19:17:07.377
170, 0.00, 0.00, 284.64, 0.00, 0.000, 0.000, 0.000, 19:17:07.377
171, 0.00, 0.00, 508.39, 0.00, 0.000, 0.000, 0.000, 19:17:07.392
172, 0.00, 0.00, -365.60, 0.00, 0.000, 0.000, 0.000, 19:17:07.392
173, 0.00, 0.00, -46.69, 0.00, 0.000, 0.000, 0.000, 19:17:07.392
174, 0.00, 0.00, 627.91, 0.00, 0.000, 0.000, 0.000, 19:17:07.392
175, 0.00, 0.00, -92.25, 0.00, 0.000, 0.000, 0.000, 19:17:07.407
176, 0.00, 0.00, -297.39, 0.00, 0.000, 0.000, 0.000, 19:17:07.407
177, 0.00, 0.00, 541.51, 0.00, 0.000, 0.000, 0.000, 19:17:07.422
178, 0.00, 0.00, 249.33, 0.00, 0.000, 0.000, 0.000, 19:17:07.422
179, 0.00, 0.00, -424.96, 0.00, 0.000, 0.000, 0.000, 19:17:07.423
180, 0.00, 0.00, 304.70, 0.00, 0.000, 0.000, 0.000, 19:17:07.423
181, 0.00, 0.00, 529.83, 0.00, 0.000, 0.000, 0.000, 19:17:07.437
182, 0.00, 0.00, -312.94, 0.00, 0.000, 0.000, 0.000, 19:17:07.437
183, 0.00, 0.00, 9.06, 0.00, 0.000, 0.000, 0.000, 19:17:07.452
184, 0.00, 0.00, 678.21, 0.00, 0.000, 0.000, 0.000, 19:17:07.452
185, 0.00, 0.00, -76.11, 0.00, 0.000, 0.000, 0.000, 19:17:07.452
186, 0.00, 0.00, -273.59, 0.00, 0.000, 0.000, 0.000, 19:17:07.452
187, 0.00, 0.00, 557.34, 0.00, 0.000, 0.000, 0.000, 19:17:07.467
188, 0.00, 0.00, 255.05, 0.00, 0.000, 0.000, 0.000, 19:17:07.467
189, 0.00, 0.00, -425.52, 0.00, 0.000, 0.000, 0.000, 19:17:07.482
190, 0.00, 0.00, 265.99, 0.00, 0.000, 0.000, 0.000, 19:17:07.482
191, 0.00, 0.00, 465.52, 0.00, 0.000, 0.000, 0.000, 19:17:07.482
192, 0.00, 0.00, -393.93, 0.00, 0.000, 0.000, 0.000, 19:17:07.482
193, 0.00, 0.00, -114.85, 0.00, 0.000, 0.000, 0.000, 19:17:07.497
194, 0.00, 0.00, 510.60, 0.00, 0.000, 0.000, 0.000, 19:17:07.497
195, 0.00, 0.00, -208.23, 0.00, 0.000, 0.000, 0.000, 19:17:07.512
196, 0.00, 0.00, -462.03, 0.00, 0.000, 0.000, 0.000, 19:17:07.512
197, 0.00, 0.00, 412.22, 0.00, 0.000, 0.000, 0.000, 19:17:07.513
198, 0.00, 0.00, 117.03, 0.00, 0.000, 0.000, 0.000, 19:17:07.513
199, 0.00, 0.00, -586.70, 0.00, 0.000, 0.000, 0.000, 19:17:07.527
200, 0.00, 0.00, 153.99, 0.00, 0.000, 0.000, 0.000, 19:17:07.527
0, 0.00, 0.00, 384.46, 0.00, 0.000, 0.000, 0.000, 19:17:07.527
1, 0.00, 0.00, -436.76, 0.00, 0.000, 0.000, 0.000, 19:17:07.542
2, 0.00, 0.00, -163.36, 0.00, 0.000, 0.000, 0.000, 19:17:07.542
3, 0.00, 0.00, 492.96, 0.00, 0.000, 0.000, 0.000, 19:17:07.557
4, 0.00, 0.00, -175.92, 0.00, 0.000, 0.000, 0.000, 19:17:07.557
5, 0.00, 0.00, -414.26, 0.00, 0.000, 0.000, 0.000, 19:17:07.557
6, 0.00, 0.00, 465.42, 0.00, 0.000, 0.000, 0.000, 19:17:07.557
7, 0.00, 0.00, 167.55, 0.00, 0.000, 0.000, 0.000, 19:17:07.572
8, 0.00, 0.00, -520.36, 0.00, 0.000, 0.000, 0.000, 19:17:07.572
9, 0.00, 0.00, 224.80, 0.00, 0.000, 0.000, 0.000, 19:17:07.587
10, 0.00, 0.00, 445.41, 0.00, 0.000, 0.000, 0.000, 19:17:07.587
11, 0.00, 0.00, -410.11, 0.00, 0.000, 0.000, 0.000, 19:17:07.587
12, 0.00, 0.00, -95.15, 0.00, 0.000, 0.000, 0.000, 19:17:07.587
13, 0.00, 0.00, 572.17, 0.00, 0.000, 0.000, 0.000, 19:17:07.602
14, 0.00, 0.00, -142.56, 0.00, 0.000, 0.000, 0.000, 19:17:07.602
15, 0.00, 0.00, -384.33, 0.00, 0.000, 0.000, 0.000, 19:17:07.617
16, 0.00, 0.00, 485.69, 0.00, 0.000, 0.000, 0.000, 19:17:07.617
17, 0.00, 0.00, 189.96, 0.00, 0.000, 0.000, 0.000, 19:17:07.618
18, 0.00, 0.00, -487.80, 0.00, 0.000, 0.000, 0.000, 19:17:07.618
19, 0.00, 0.00, 249.69, 0.00, 0.000, 0.000, 0.000, 19:17:07.632
20, 0.00, 0.00, 489.62, 0.00, 0.000, 0.000, 0.000, 19:17:07.632
21, 0.00, 0.00, -386.27, 0.00, 0.000, 0.000, 0.000, 19:17:07.647
22, 0.00, 0.00, -92.84, 0.00, 0.000, 0.000, 0.000, 19:17:07.647
23, 0.00, 0.00, 580.99, 0.00, 0.000, 0.000, 0.000, 19:17:07.647
24, 0.00, 0.00, -145.01, 0.00, 0.000, 0.000, 0.000, 19:17:07.648
25, 0.00, 0.00, -373.85, 0.00, 0.000, 0.000, 0.000, 19:17:07.662
26, 0.00, 0.00, 488.61, 0.00, 0.000, 0.000, 0.000, 19:17:07.662
27, 0.00, 0.00, 202.50, 0.00, 0.000, 0.000, 0.000, 19:17:07.677
28, 0.00, 0.00, -495.75, 0.00, 0.000, 0.000, 0.000, 19:17:07.677
29, 0.00, 0.00, 250.15, 0.00, 0.000, 0.000, 0.000, 19:17:07.677
30, 0.00, 0.00, 461.21, 0.00, 0.000, 0.000, 0.000, 19:17:07.677
31, 0.00, 0.00, -398.73, 0.00, 0.000, 0.000, 0.000, 19:17:07.692
32, 0.00, 0.00, -81.74, 0.00, 0.000, 0.000, 0.000, 19:17:07.692
33, 0.00, 0.00, 601.59, 0.00, 0.000, 0.000, 0.000, 19:17:07.707
34, 0.00, 0.00, -148.59, 0.00, 0.000, 0.000, 0.000, 19:17:07.707
35, 0.00, 0.00, -371.77, 0.00, 0.000, 0.000, 0.000, 19:17:07.707
36, 0.00, 0.00, 513.87, 0.00, 0.000, 0.000, 0.000, 19:17:07.707
37, 0.00, 0.00, 177.52, 0.00, 0.000, 0.000, 0.000, 19:17:07.722
38, 0.00, 0.00, -476.15, 0.00, 0.000, 0.000, 0.000, 19:17:07.722
39, 0.00, 0.00, 233.96, 0.00, 0.000, 0.000, 0.000, 19:17:07.737
40, 0.00, 0.00, 465.23, 0.00, 0.000, 0.000, 0.000, 19:17:07.737
41, 0.00, 0.00, -398.99, 0.00, 0.000, 0.000, 0.000, 19:17:07.737
42, 0.00, 0.00, -51.01, 0.00, 0.000, 0.000, 0.000, 19:17:07.737
43, 0.00, 0.00, 605.98, 0.00, 0.000, 0.000, 0.000, 19:17:07.752
44, 0.00, 0.00, -123.69, 0.00, 0.000, 0.000, 0.000, 19:17:07.752
45, 0.00, 0.00, -336.66, 0.00, 0.000, 0.000, 0.000, 19:17:07.767
46, 0.00, 0.00, 518.98, 0.00, 0.000, 0.000, 0.000, 19:17:07.767
47, 0.00, 0.00, 206.75, 0.00, 0.000, 0.000, 0.000, 19:17:07.767
48, 0.00, 0.00, -490.86, 0.00, 0.000, 0.000, 0.000, 19:17:07.767
49, 0.00, 0.00, 226.22, 0.00, 0.000, 0.000, 0.000, 19:17:07.782
50, 0.00, 0.00, 468.35, 0.00, 0.000, 0.000, 0.000, 19:17:07.782
51, 0.00, 0.00, -394.81, 0.00, 0.000, 0.000, 0.000, 19:17:07.797
52, 0.00, 0.00, -107.44, 0.00, 0.000, 0.000, 0.000, 19:17:07.797
53, 0.00, 0.00, 600.49, 0.00, 0.000, 0.000, 0.000, 19:17:07.797
54, 0.00, 0.00, -119.69, 0.00, 0.000, 0.000, 0.000, 19:17:07.797
55, 0.00, 0.00, -381.52, 0.00, 0.000, 0.000, 0.000, 19:17:07.812
56, 0.00, 0.00, 490.50, 0.00, 0.000, 0.000, 0.000, 19:17:07.812
57, 0.00, 0.00, 210.39, 0.00, 0.000, 0.000, 0.000, 19:17:07.827
58, 0.00, 0.00, -487.08, 0.00, 0.000, 0.000, 0.000, 19:17:07.827
59, 0.00, 0.00, 242.77, 0.00, 0.000, 0.000, 0.000, 19:17:07.827
60, 0.00, 0.00, 479.66, 0.00, 0.000, 0.000, 0.000, 19:17:07.827
61, 0.00, 0.00, -415.06, 0.00, 0.000, 0.000, 0.000, 19:17:07.842
62, 0.00, 0.00, -131.19, 0.00, 0.000, 0.000, 0.000, 19:17:07.842
63, 0.00, 0.00, 571.34, 0.00, 0.000, 0.000, 0.000, 19:17:07.857
64, 0.00, 0.00, 12.26, 0.00, 0.000, 0.000, 0.000, 19:17:07.857
65, 0.00, 0.00, -105.20, 0.00, 0.000, 0.000, 0.000, 19:17:07.857
66, 0.00, 0.00, 867.98, 0.00, 0.000, 0.000, 0.000, 19:17:07.857
67, 0.00, 0.00, 640.51, 0.00, 0.000, 0.000, 0.000, 19:17:07.872
68, 0.00, 0.00, -192.86, 0.00, 0.000, 0.000, 0.000, 19:17:07.872
69, 0.00, 0.00, 256.31, 0.00, 0.000, 0.000, 0.000, 19:17:07.887
70, 0.00, 0.00, 245.72, 0.00, 0.000, 0.000, 0.000, 19:17:07.887
71, 0.00, 0.00, -590.39, 0.00, 0.000, 0.000, 0.000, 19:17:07.887
72, 0.00, 0.00, -171.02, 0.00, 0.000, 0.000, 0.000, 19:17:07.887
73, 0.00, 0.00, 548.61, 0.00, 0.000, 0.000, 0.000, 19:17:07.902
74, 0.00, 0.00, -192.04, 0.00, 0.000, 0.000, 0.000, 19:17:07.902
75, 0.00, 0.00, -427.43, 0.00, 0.000, 0.000, 0.000, 19:17:07.917
76, 0.00, 0.00, 426.48, 0.00, 0.000, 0.000, 0.000, 19:17:07.917
77, 0.00, 0.00, 139.46, 0.00, 0.000, 0.000, 0.000, 19:17:07.917
78, 0.00, 0.00, -523.11, 0.00, 0.000, 0.000, 0.000, 19:17:07.917
79, 0.00, 0.00, 197.83, 0.00, 0.000, 0.000, 0.000, 19:17:07.932
80, 0.00, 0.00, 463.54, 0.00, 0.000, 0.000, 0.000, 19:17:07.933
81, 0.00, 0.00, -421.31, 0.00, 0.000, 0.000, 0.000, 19:17:07.947
82, 0.00, 0.00, -113.46, 0.00, 0.000, 0.000, 0.000, 19:17:07.947
83, 0.00, 0.00, 582.02, 0.00, 0.000, 0.000, 0.000, 19:17:07.947
84, 0.00, 0.00, -162.33, 0.00, 0.000, 0.000, 0.000, 19:17:07.947
85, 0.00, 0.00, -354.84, 0.00, 0.000, 0.000, 0.000, 19:17:07.962
86, 0.00, 0.00, 472.04, 0.00, 0.000, 0.000, 0.000, 19:17:07.962
87, 0.00, 0.00, 182.51, 0.00, 0.000, 0.000, 0.000, 19:17:07.977
88, 0.00, 0.00, -501.72, 0.00, 0.000, 0.000, 0.000, 19:17:07.977
89, 0.00, 0.00, 247.42, 0.00, 0.000, 0.000, 0.000, 19:17:07.977
90, 0.00, 0.00, 493.45, 0.00, 0.000, 0.000, 0.000, 19:17:07.977
91, 0.00, 0.00, -373.12, 0.00, 0.000, 0.000, 0.000, 19:17:07.992
92, 0.00, 0.00, -57.41, 0.00, 0.000, 0.000, 0.000, 19:17:07.992
93, 0.00, 0.00, 613.80, 0.00, 0.000, 0.000, 0.000, 19:17:08.007
94, 0.00, 0.00, -109.01, 0.00, 0.000, 0.000, 0.000, 19:17:08.008
95, 0.00, 0.00, -330.46, 0.00, 0.000, 0.000, 0.000, 19:17:08.008
96, 0.00, 0.00, 538.39, 0.00, 0.000, 0.000, 0.000, 19:17:08.008
97, 0.00, 0.00, 250.26, 0.00, 0.000, 0.000, 0.000, 19:17:08.022
98, 0.00, 0.00, -414.22, 0.00, 0.000, 0.000, 0.000, 19:17:08.022
99, 0.00, 0.00, 276.54, 0.00, 0.000, 0.000, 0.000, 19:17:08.037
100, 0.00, 0.00, 536.56, 0.00, 0.000, 0.000, 0.000, 19:17:08.037
101, 0.00, 0.00, -324.42, 0.00, 0.000, 0.000, 0.000, 19:17:08.037
102, 0.00, 0.00, 5.40, 0.00, 0.000, 0.000, 0.000, 19:17:08.038
103, 0.00, 0.00, 655.00, 0.00, 0.000, 0.000, 0.000, 19:17:08.052
104, 0.00, 0.00, -45.93, 0.00, 0.000, 0.000, 0.000, 19:17:08.052
105, 0.00, 0.00, -272.42, 0.00, 0.000, 0.000, 0.000, 19:17:08.067
106, 0.00, 0.00, 585.75, 0.00, 0.000, 0.000, 0.000, 19:17:08.067
107, 0.00, 0.00, 283.02, 0.00, 0.000, 0.000, 0.000, 19:17:08.067
108, 0.00, 0.00, -395.21, 0.00, 0.000, 0.000, 0.000, 19:17:08.067
109, 0.00, 0.00, 294.95, 0.00, 0.000, 0.000, 0.000, 19:17:08.082
110, 0.00, 0.00, 530.15, 0.00, 0.000, 0.000, 0.000, 19:17:08.082
111, 0.00, 0.00, -323.74, 0.00, 0.000, 0.000, 0.000, 19:17:08.097
112, 0.00, 0.00, -27.40, 0.00, 0.000, 0.000, 0.000, 19:17:08.097
113, 0.00, 0.00, 616.71, 0.00, 0.000, 0.000, 0.000, 19:17:08.097
114, 0.00, 0.00, -130.10, 0.00, 0.000, 0.000, 0.000, 19:17:08.097
115, 0.00, 0.00, -398.24, 0.00, 0.000, 0.000, 0.000, 19:17:08.112
116, 0.00, 0.00, 463.83, 0.00, 0.000, 0.000, 0.000, 19:17:08.112
117, 0.00, 0.00, 159.22, 0.00, 0.000, 0.000, 0.000, 19:17:08.127
118, 0.00, 0.00, -551.00, 0.00, 0.000, 0.000, 0.000, 19:17:08.127
119, 0.00, 0.00, 156.23, 0.00, 0.000, 0.000, 0.000, 19:17:08.127
120, 0.00, 0.00, 370.12, 0.00, 0.000, 0.000, 0.000, 19:17:08.127
121, 0.00, 0.00, -483.65, 0.00, 0.000, 0.000, 0.000, 19:17:08.142
122, 0.00, 0.00, -178.79, 0.00, 0.000, 0.000, 0.000, 19:17:08.142
123, 0.00, 0.00, 504.20, 0.00, 0.000, 0.000, 0.000, 19:17:08.157
124, 0.00, 0.00, -190.39, 0.00, 0.000, 0.000, 0.000, 19:17:08.157
125, 0.00, 0.00, -446.46, 0.00, 0.000, 0.000, 0.000, 19:17:08.158
126, 0.00, 0.00, 426.63, 0.00, 0.000, 0.000, 0.000, 19:17:08.158
127, 0.00, 0.00, 137.37, 0.00, 0.000, 0.000, 0.000, 19:17:08.172
128, 0.00, 0.00, -541.15, 0.00, 0.000, 0.000, 0.000, 19:17:08.172
129, 0.00, 0.00, 182.18, 0.00, 0.000, 0.000, 0.000, 19:17:08.188
130, 0.00, 0.00, 432.84, 0.00, 0.000, 0.000, 0.000, 19:17:08.188
131, 0.00, 0.00, -417.91, 0.00, 0.000, 0.000, 0.000, 19:17:08.188
132, 0.00, 0.00, -115.88, 0.00, 0.000, 0.000, 0.000, 19:17:08.188
133, 0.00, 0.00, 535.37, 0.00, 0.000, 0.000, 0.000, 19:17:08.202
134, 0.00, 0.00, -166.65, 0.00, 0.000, 0.000, 0.000, 19:17:08.202
135, 0.00, 0.00, -379.96, 0.00, 0.000, 0.000, 0.000, 19:17:08.217
136, 0.00, 0.00, 483.83, 0.00, 0.000, 0.000, 0.000, 19:17:08.218
137, 0.00, 0.00, 183.33, 0.00, 0.000, 0.000, 0.000, 19:17:08.218
138, 0.00, 0.00, -513.39, 0.00, 0.000, 0.000, 0.000, 19:17:08.218
139, 0.00, 0.00, 242.26, 0.00, 0.000, 0.000, 0.000, 19:17:08.232
140, 0.00, 0.00, 492.87, 0.00, 0.000, 0.000, 0.000, 19:17:08.232
141, 0.00, 0.00, -423.45, 0.00, 0.000, 0.000, 0.000, 19:17:08.247
142, 0.00, 0.00, -112.52, 0.00, 0.000, 0.000, 0.000, 19:17:08.247
143, 0.00, 0.00, 625.65, 0.00, 0.000, 0.000, 0.000, 19:17:08.247
144, 0.00, 0.00, -169.11, 0.00, 0.000, 0.000, 0.000, 19:17:08.247
145, 0.00, 0.00, -380.38, 0.00, 0.000, 0.000, 0.000, 19:17:08.262
146, 0.00, 0.00, 498.43, 0.00, 0.000, 0.000, 0.000, 19:17:08.262
147, 0.00, 0.00, 201.54, 0.00, 0.000, 0.000, 0.000, 19:17:08.277
148, 0.00, 0.00, -513.56, 0.00, 0.000, 0.000, 0.000, 19:17:08.277
149, 0.00, 0.00, 249.42, 0.00, 0.000, 0.000, 0.000, 19:17:08.277
150, 0.00, 0.00, 474.42, 0.00, 0.000, 0.000, 0.000, 19:17:08.277
151, 0.00, 0.00, -397.67, 0.00, 0.000, 0.000, 0.000, 19:17:08.292
152, 0.00, 0.00, -97.92, 0.00, 0.000, 0.000, 0.000, 19:17:08.292
153, 0.00, 0.00, 608.39, 0.00, 0.000, 0.000, 0.000, 19:17:08.307
154, 0.00, 0.00, -142.28, 0.00, 0.000, 0.000, 0.000, 19:17:08.307
155, 0.00, 0.00, -414.61, 0.00, 0.000, 0.000, 0.000, 19:17:08.308
156, 0.00, 0.00, 501.49, 0.00, 0.000, 0.000, 0.000, 19:17:08.308
157, 0.00, 0.00, 213.04, 0.00, 0.000, 0.000, 0.000, 19:17:08.322
158, 0.00, 0.00, -514.30, 0.00, 0.000, 0.000, 0.000, 19:17:08.322
159, 0.00, 0.00, 237.76, 0.00, 0.000, 0.000, 0.000, 19:17:08.337
160, 0.00, 0.00, 491.55, 0.00, 0.000, 0.000, 0.000, 19:17:08.337
161, 0.00, 0.00, -410.56, 0.00, 0.000, 0.000, 0.000, 19:17:08.337
162, 0.00, 0.00, -85.51, 0.00, 0.000, 0.000, 0.000, 19:17:08.337
163, 0.00, 0.00, 608.08, 0.00, 0.000, 0.000, 0.000, 19:17:08.352
164, 0.00, 0.00, -137.04, 0.00, 0.000, 0.000, 0.000, 19:17:08.352
165, 0.00, 0.00, -397.82, 0.00, 0.000, 0.000, 0.000, 19:17:08.367
166, 0.00, 0.00, 495.84, 0.00, 0.000, 0.000, 0.000, 19:17:08.367
167, 0.00, 0.00, 216.53, 0.00, 0.000, 0.000, 0.000, 19:17:08.367
168, 0.00, 0.00, -492.54, 0.00, 0.000, 0.000, 0.000, 19:17:08.367
169, 0.00, 0.00, 253.41, 0.00, 0.000, 0.000, 0.000, 19:17:08.382
170, 0.00, 0.00, 476.47, 0.00, 0.000, 0.000, 0.000, 19:17:08.382
171, 0.00, 0.00, -399.49, 0.00, 0.000, 0.000, 0.000, 19:17:08.397
172, 0.00, 0.00, -70.73, 0.00, 0.000, 0.000, 0.000, 19:17:08.397
173, 0.00, 0.00, 643.09, 0.00, 0.000, 0.000, 0.000, 19:17:08.398
174, 0.00, 0.00, -118.63, 0.00, 0.000, 0.000, 0.000, 19:17:08.398
175, 0.00, 0.00, -358.69, 0.00, 0.000, 0.000, 0.000, 19:17:08.412
176, 0.00, 0.00, 531.31, 0.00, 0.000, 0.000, 0.000, 19:17:08.412
177, 0.00, 0.00, 230.92, 0.00, 0.000, 0.000, 0.000, 19:17:08.427
178, 0.00, 0.00, -489.22, 0.00, 0.000, 0.000, 0.000, 19:17:08.427
179, 0.00, 0.00, 251.38, 0.00, 0.000, 0.000, 0.000, 19:17:08.428
180, 0.00, 0.00, 501.04, 0.00, 0.000, 0.000, 0.000, 19:17:08.428
181, 0.00, 0.00, -417.97, 0.00, 0.000, 0.000, 0.000, 19:17:08.442
182, 0.00, 0.00, -106.04, 0.00, 0.000, 0.000, 0.000, 19:17:08.442
183, 0.00, 0.00, 620.88, 0.00, 0.000, 0.000, 0.000, 19:17:08.457
184, 0.00, 0.00, -131.65, 0.00, 0.000, 0.000, 0.000, 19:17:08.457
185, 0.00, 0.00, -398.02, 0.00, 0.000, 0.000, 0.000, 19:17:08.457
186, 0.00, 0.00, 528.00, 0.00, 0.000, 0.000, 0.000, 19:17:08.458
187, 0.00, 0.00, 232.32, 0.00, 0.000, 0.000, 0.000, 19:17:08.472
188, 0.00, 0.00, -507.79, 0.00, 0.000, 0.000, 0.000, 19:17:08.472
189, 0.00, 0.00, 241.20, 0.00, 0.000, 0.000, 0.000, 19:17:08.487
190, 0.00, 0.00, 513.95, 0.00, 0.000, 0.000, 0.000, 19:17:08.487
191, 0.00, 0.00, -405.92, 0.00, 0.000, 0.000, 0.000, 19:17:08.487
192, 0.00, 0.00, -134.84, 0.00, 0.000, 0.000, 0.000, 19:17:08.488
193, 0.00, 0.00, 598.57, 0.00, 0.000, 0.000, 0.000, 19:17:08.502
194, 0.00, 0.00, -135.51, 0.00, 0.000, 0.000, 0.000, 19:17:08.502
195, 0.00, 0.00, -259.64, 0.00, 0.000, 0.000, 0.000, 19:17:08.517
196, 0.00, 0.00, -146.74, 0.00, 0.000, 0.000, 0.000, 19:17:08.517
197, 0.00, 0.00, -370.74, 0.00, 0.000, 0.000, 0.000, 19:17:08.518
198, 0.00, 0.00, -1060.03, 0.00, 0.000, 0.000, 0.000, 19:17:08.518
199, 0.00, 0.00, -493.27, 0.00, 0.000, 0.000, 0.000, 19:17:08.532
200, 0.00, 0.00, -507.87, 0.00, 0.000, 0.000, 0.000, 19:17:08.532
0, 0.00, 0.00, -672.74, 0.00, 0.000, 0.000, 0.000, 19:17:08.533
1, 0.00, 0.00, -317.46, 0.00, 0.000, 0.000, 0.000, 19:17:08.547
2, 0.00, 0.00, 570.50, 0.00, 0.000, 0.000, 0.000, 19:17:08.547
3, 0.00, 0.00, -168.37, 0.00, 0.000, 0.000, 0.000, 19:17:08.562
4, 0.00, 0.00, -468.14, 0.00, 0.000, 0.000, 0.000, 19:17:08.562
5, 0.00, 0.00, 472.48, 0.00, 0.000, 0.000, 0.000, 19:17:08.562
6, 0.00, 0.00, 169.55, 0.00, 0.000, 0.000, 0.000, 19:17:08.562
7, 0.00, 0.00, -595.94, 0.00, 0.000, 0.000, 0.000, 19:17:08.577
8, 0.00, 0.00, 226.38, 0.00, 0.000, 0.000, 0.000, 19:17:08.577
9, 0.00, 0.00, 471.84, 0.00, 0.000, 0.000, 0.000, 19:17:08.592
10, 0.00, 0.00, -450.61, 0.00, 0.000, 0.000, 0.000, 19:17:08.592
11, 0.00, 0.00, -146.06, 0.00, 0.000, 0.000, 0.000, 19:17:08.592
12, 0.00, 0.00, 630.41, 0.00, 0.000, 0.000, 0.000, 19:17:08.592
13, 0.00, 0.00, -154.80, 0.00, 0.000, 0.000, 0.000, 19:17:08.607
14, 0.00, 0.00, -428.80, 0.00, 0.000, 0.000, 0.000, 19:17:08.607
15, 0.00, 0.00, -421.34, 0.00, 0.000, 0.000, 0.000, 19:17:08.622
16, 0.00, 0.00, -721.39, 0.00, 0.000, 0.000, 0.000, 19:17:08.622
17, 0.00, 0.00, -1530.64, 0.00, 0.000, 0.000, 0.000, 19:17:08.622
18, 0.00, 0.00, -707.07, 0.00, 0.000, 0.000, 0.000, 19:17:08.622
19, 0.00, 0.00, -432.37, 0.00, 0.000, 0.000, 0.000, 19:17:08.637
20, 0.00, 0.00, -1408.67, 0.00, 0.000, 0.000, 0.000, 19:17:08.637
21, 0.00, 0.00, -1080.55, 0.00, 0.000, 0.000, 0.000, 19:17:08.652
22, 0.00, 0.00, -295.53, 0.00, 0.000, 0.000, 0.000, 19:17:08.652
23, 0.00, 0.00, -1098.47, 0.00, 0.000, 0.000, 0.000, 19:17:08.652
24, 0.00, 0.00, -1367.03, 0.00, 0.000, 0.000, 0.000, 19:17:08.652
25, 0.00, 0.00, -406.86, 0.00, 0.000, 0.000, 0.000, 19:17:08.667
26, 0.00, 0.00, -728.23, 0.00, 0.000, 0.000, 0.000, 19:17:08.667
27, 0.00, 0.00, -1474.32, 0.00, 0.000, 0.000, 0.000, 19:17:08.682
28, 0.00, 0.00, -669.00, 0.00, 0.000, 0.000, 0.000, 19:17:08.682
29, 0.00, 0.00, -396.67, 0.00, 0.000, 0.000, 0.000, 19:17:08.682
30, 0.00, 0.00, -1356.10, 0.00, 0.000, 0.000, 0.000, 19:17:08.682
31, 0.00, 0.00, -1015.27, 0.00, 0.000, 0.000, 0.000, 19:17:08.697
32, 0.00, 0.00, -281.91, 0.00, 0.000, 0.000, 0.000, 19:17:08.697
33, 0.00, 0.00, -1059.22, 0.00, 0.000, 0.000, 0.000, 19:17:08.712
34, 0.00, 0.00, -1332.94, 0.00, 0.000, 0.000, 0.000, 19:17:08.712
35, 0.00, 0.00, -1318.31, 0.00, 0.000, 0.000, 0.000, 19:17:08.712
36, 0.00, 0.00, -1638.00, 0.00, 0.000, 0.000, 0.000, 19:17:08.712
37, 0.00, 0.00, -2442.41, 0.00, 0.000, 0.000, 0.000, 19:17:08.727
38, 0.00, 0.00, -1641.63, 0.00, 0.000, 0.000, 0.000, 19:17:08.727
39, 0.00, 0.00, -1353.39, 0.00, 0.000, 0.000, 0.000, 19:17:08.742
40, 0.00, 0.00, -2317.62, 0.00, 0.000, 0.000, 0.000, 19:17:08.742
41, 0.00, 0.00, -2034.88, 0.00, 0.000, 0.000, 0.000, 19:17:08.742
42, 0.00, 0.00, -1219.33, 0.00, 0.000, 0.000, 0.000, 19:17:08.743
43, 0.00, 0.00, -2089.53, 0.00, 0.000, 0.000, 0.000, 19:17:08.757
44, 0.00, 0.00, -2373.51, 0.00, 0.000, 0.000, 0.000, 19:17:08.757
45, 0.00, 0.00, -1414.13, 0.00, 0.000, 0.000, 0.000, 19:17:08.772
46, 0.00, 0.00, -1763.68, 0.00, 0.000, 0.000, 0.000, 19:17:08.772
47, 0.00, 0.00, -2564.78, 0.00, 0.000, 0.000, 0.000, 19:17:08.772
48, 0.00, 0.00, -1779.05, 0.00, 0.000, 0.000, 0.000, 19:17:08.773
49, 0.00, 0.00, -1494.25, 0.00, 0.000, 0.000, 0.000, 19:17:08.787
50, 0.00, 0.00, -1529.54, 0.00, 0.000, 0.000, 0.000, 19:17:08.787
51, 0.00, 0.00, -1207.66, 0.00, 0.000, 0.000, 0.000, 19:17:08.802
52, 0.00, 0.00, -411.58, 0.00, 0.000, 0.000, 0.000, 19:17:08.802
53, 0.00, 0.00, -1201.69, 0.00, 0.000, 0.000, 0.000, 19:17:08.802
54, 0.00, 0.00, -1525.42, 0.00, 0.000, 0.000, 0.000, 19:17:08.802
55, 0.00, 0.00, -1496.40, 0.00, 0.000, 0.000, 0.000, 19:17:08.817
56, 0.00, 0.00, -1797.47, 0.00, 0.000, 0.000, 0.000, 19:17:08.817
57, 0.00, 0.00, -2588.89, 0.00, 0.000, 0.000, 0.000, 19:17:08.832
58, 0.00, 0.00, -1764.96, 0.00, 0.000, 0.000, 0.000, 19:17:08.832
59, 0.00, 0.00, -1470.64, 0.00, 0.000, 0.000, 0.000, 19:17:08.832
60, 0.00, 0.00, -2441.48, 0.00, 0.000, 0.000, 0.000, 19:17:08.832
61, 0.00, 0.00, -2131.97, 0.00, 0.000, 0.000, 0.000, 19:17:08.847
62, 0.00, 0.00, -1328.94, 0.00, 0.000, 0.000, 0.000, 19:17:08.847
63, 0.00, 0.00, -2127.76, 0.00, 0.000, 0.000, 0.000, 19:17:08.862
64, 0.00, 0.00, -2422.11, 0.00, 0.000, 0.000, 0.000, 19:17:08.862
65, 0.00, 0.00, -2418.31, 0.00, 0.000, 0.000, 0.000, 19:17:08.862
66, 0.00, 0.00, -2749.45, 0.00, 0.000, 0.000, 0.000, 19:17:08.862
67, 0.00, 0.00, -3512.22, 0.00, 0.000, 0.000, 0.000, 19:17:08.877
68, 0.00, 0.00, -2717.35, 0.00, 0.000, 0.000, 0.000, 19:17:08.877
69, 0.00, 0.00, -2408.14, 0.00, 0.000, 0.000, 0.000, 19:17:08.892
70, 0.00, 0.00, -3366.03, 0.00, 0.000, 0.000, 0.000, 19:17:08.892
71, 0.00, 0.00, -3077.70, 0.00, 0.000, 0.000, 0.000, 19:17:08.893
72, 0.00, 0.00, -2283.52, 0.00, 0.000, 0.000, 0.000, 19:17:08.893
73, 0.00, 0.00, -3068.60, 0.00, 0.000, 0.000, 0.000, 19:17:08.907
74, 0.00, 0.00, -3376.45, 0.00, 0.000, 0.000, 0.000, 19:17:08.907
75, 0.00, 0.00, -2419.83, 0.00, 0.000, 0.000, 0.000, 19:17:08.922
76, 0.00, 0.00, -2703.74, 0.00, 0.000, 0.000, 0.000, 19:17:08.922
77, 0.00, 0.00, -3486.34, 0.00, 0.000, 0.000, 0.000, 19:17:08.922
78, 0.00, 0.00, -2695.88, 0.00, 0.000, 0.000, 0.000, 19:17:08.923
79, 0.00, 0.00, -2416.54, 0.00, 0.000, 0.000, 0.000, 19:17:08.937
80, 0.00, 0.00, -3393.71, 0.00, 0.000, 0.000, 0.000, 19:17:08.937
81, 0.00, 0.00, -3037.87, 0.00, 0.000, 0.000, 0.000, 19:17:08.952
82, 0.00, 0.00, -2288.01, 0.00, 0.000, 0.000, 0.000, 19:17:08.952
83, 0.00, 0.00, -3099.31, 0.00, 0.000, 0.000, 0.000, 19:17:08.953
84, 0.00, 0.00, -3368.59, 0.00, 0.000, 0.000, 0.000, 19:17:08.953
85, 0.00, 0.00, -3353.73, 0.00, 0.000, 0.000, 0.000, 19:17:08.967
86, 0.00, 0.00, -3694.92, 0.00, 0.000, 0.000, 0.000, 19:17:08.967
87, 0.00, 0.00, -4479.30, 0.00, 0.000, 0.000, 0.000, 19:17:08.982
88, 0.00, 0.00, -3683.56, 0.00, 0.000, 0.000, 0.000, 19:17:08.982
89, 0.00, 0.00, -3381.02, 0.00, 0.000, 0.000, 0.000, 19:17:08.983
90, 0.00, 0.00, -4359.69, 0.00, 0.000, 0.000, 0.000, 19:17:08.983
91, 0.00, 0.00, -4069.45, 0.00, 0.000, 0.000, 0.000, 19:17:08.997
92, 0.00, 0.00, -3272.40, 0.00, 0.000, 0.000, 0.000, 19:17:08.997
93, 0.00, 0.00, -4052.99, 0.00, 0.000, 0.000, 0.000, 19:17:09.012
94, 0.00, 0.00, -4355.33, 0.00, 0.000, 0.000, 0.000, 19:17:09.012
95, 0.00, 0.00, -4342.89, 0.00, 0.000, 0.000, 0.000, 19:17:09.012
96, 0.00, 0.00, -4666.29, 0.00, 0.000, 0.000, 0.000, 19:17:09.012
97, 0.00, 0.00, -5473.30, 0.00, 0.000, 0.000, 0.000, 19:17:09.027
98, 0.00, 0.00, -4649.93, 0.00, 0.000, 0.000, 0.000, 19:17:09.027
99, 0.00, 0.00, -4376.92, 0.00, 0.000, 0.000, 0.000, 19:17:09.042
100, 0.00, 0.00, -5340.77, 0.00, 0.000, 0.000, 0.000, 19:17:09.042
101, 0.00, 0.00, -4983.30, 0.00, 0.000, 0.000, 0.000, 19:17:09.042
102, 0.00, 0.00, -4216.64, 0.00, 0.000, 0.000, 0.000, 19:17:09.042
103, 0.00, 0.00, -5058.35, 0.00, 0.000, 0.000, 0.000, 19:17:09.057
104, 0.00, 0.00, -5333.29, 0.00, 0.000, 0.000, 0.000, 19:17:09.058
105, 0.00, 0.00, -5324.07, 0.00, 0.000, 0.000, 0.000, 19:17:09.072
106, 0.00, 0.00, -5620.11, 0.00, 0.000, 0.000, 0.000, 19:17:09.072
107, 0.00, 0.00, -6418.42, 0.00, 0.000, 0.000, 0.000, 19:17:09.072
108, 0.00, 0.00, -5658.93, 0.00, 0.000, 0.000, 0.000, 19:17:09.072
109, 0.00, 0.00, -5339.88, 0.00, 0.000, 0.000, 0.000, 19:17:09.087
110, 0.00, 0.00, -6314.97, 0.00, 0.000, 0.000, 0.000, 19:17:09.087
111, 0.00, 0.00, -6001.80, 0.00, 0.000, 0.000, 0.000, 19:17:09.102
112, 0.00, 0.00, -5225.40, 0.00, 0.000, 0.000, 0.000, 19:17:09.102
113, 0.00, 0.00, -6023.93, 0.00, 0.000, 0.000, 0.000, 19:17:09.102
114, 0.00, 0.00, -6324.07, 0.00, 0.000, 0.000, 0.000, 19:17:09.102
115, 0.00, 0.00, -6320.29, 0.00, 0.000, 0.000, 0.000, 19:17:09.117
116, 0.00, 0.00, -6633.87, 0.00, 0.000, 0.000, 0.000, 19:17:09.117
117, 0.00, 0.00, -7437.01, 0.00, 0.000, 0.000, 0.000, 19:17:09.132
118, 0.00, 0.00, -6613.04, 0.00, 0.000, 0.000, 0.000, 19:17:09.132
119, 0.00, 0.00, -6306.66, 0.00, 0.000, 0.000, 0.000, 19:17:09.133
120, 0.00, 0.00, -6332.45, 0.00, 0.000, 0.000, 0.000, 19:17:09.133
121, 0.00, 0.00, -6045.49, 0.00, 0.000, 0.000, 0.000, 19:17:09.147
122, 0.00, 0.00, -5256.79, 0.00, 0.000, 0.000, 0.000, 19:17:09.147
123, 0.00, 0.00, -5989.66, 0.00, 0.000, 0.000, 0.000, 19:17:09.162
124, 0.00, 0.00, -6100.77, 0.00, 0.000, 0.000, 0.000, 19:17:09.162
125, 0.00, 0.00, -5991.31, 0.00, 0.000, 0.000, 0.000, 19:17:09.162
126, 0.00, 0.00, -6189.89, 0.00, 0.000, 0.000, 0.000, 19:17:09.163
127, 0.00, 0.00, -6999.25, 0.00, 0.000, 0.000, 0.000, 19:17:09.177
128, 0.00, 0.00, -6469.35, 0.00, 0.000, 0.000, 0.000, 19:17:09.177
129, 0.00, 0.00, -6424.78, 0.00, 0.000, 0.000, 0.000, 19:17:09.192
130, 0.00, 0.00, -6565.85, 0.00, 0.000, 0.000, 0.000, 19:17:09.192
131, 0.00, 0.00, -6193.89, 0.00, 0.000, 0.000, 0.000, 19:17:09.192
132, 0.00, 0.00, -5284.28, 0.00, 0.000, 0.000, 0.000, 19:17:09.193
133, 0.00, 0.00, -6071.12, 0.00, 0.000, 0.000, 0.000, 19:17:09.207
134, 0.00, 0.00, -6351.51, 0.00, 0.000, 0.000, 0.000, 19:17:09.207
135, 0.00, 0.00, -5389.28, 0.00, 0.000, 0.000, 0.000, 19:17:09.222
136, 0.00, 0.00, -5696.86, 0.00, 0.000, 0.000, 0.000, 19:17:09.222
137, 0.00, 0.00, -6496.69, 0.00, 0.000, 0.000, 0.000, 19:17:09.222
138, 0.00, 0.00, -5676.16, 0.00, 0.000, 0.000, 0.000, 19:17:09.222
139, 0.00, 0.00, -5356.79, 0.00, 0.000, 0.000, 0.000, 19:17:09.237
140, 0.00, 0.00, -5361.04, 0.00, 0.000, 0.000, 0.000, 19:17:09.237
141, 0.00, 0.00, -5056.88, 0.00, 0.000, 0.000, 0.000, 19:17:09.252
142, 0.00, 0.00, -4244.26, 0.00, 0.000, 0.000, 0.000, 19:17:09.252
143, 0.00, 0.00, -5034.95, 0.00, 0.000, 0.000, 0.000, 19:17:09.252
144, 0.00, 0.00, -5323.60, 0.00, 0.000, 0.000, 0.000, 19:17:09.252
145, 0.00, 0.00, -4359.00, 0.00, 0.000, 0.000, 0.000, 19:17:09.267
146, 0.00, 0.00, -4665.51, 0.00, 0.000, 0.000, 0.000, 19:17:09.267
147, 0.00, 0.00, -5451.27, 0.00, 0.000, 0.000, 0.000, 19:17:09.282
148, 0.00, 0.00, -4638.56, 0.00, 0.000, 0.000, 0.000, 19:17:09.282
149, 0.00, 0.00, -4337.44, 0.00, 0.000, 0.000, 0.000, 19:17:09.282
150, 0.00, 0.00, -5316.53, 0.00, 0.000, 0.000, 0.000, 19:17:09.282
151, 0.00, 0.00, -5013.41, 0.00, 0.000, 0.000, 0.000, 19:17:09.299
152, 0.00, 0.00, -4212.76, 0.00, 0.000, 0.000, 0.000, 19:17:09.299
153, 0.00, 0.00, -5009.04, 0.00, 0.000, 0.000, 0.000, 19:17:09.312
154, 0.00, 0.00, -5316.43, 0.00, 0.000, 0.000, 0.000, 19:17:09.313
155, 0.00, 0.00, -5285.01, 0.00, 0.000, 0.000, 0.000, 19:17:09.313
156, 0.00, 0.00, -5581.79, 0.00, 0.000, 0.000, 0.000, 19:17:09.313
157, 0.00, 0.00, -6395.82, 0.00, 0.000, 0.000, 0.000, 19:17:09.327
158, 0.00, 0.00, -5599.29, 0.00, 0.000, 0.000, 0.000, 19:17:09.328
159, 0.00, 0.00, -5267.92, 0.00, 0.000, 0.000, 0.000, 19:17:09.342
160, 0.00, 0.00, -6228.43, 0.00, 0.000, 0.000, 0.000, 19:17:09.343
161, 0.00, 0.00, -5947.97, 0.00, 0.000, 0.000, 0.000, 19:17:09.343
162, 0.00, 0.00, -5163.15, 0.00, 0.000, 0.000, 0.000, 19:17:09.343
163, 0.00, 0.00, -5924.84, 0.00, 0.000, 0.000, 0.000, 19:17:09.357
164, 0.00, 0.00, -6250.62, 0.00, 0.000, 0.000, 0.000, 19:17:09.357
165, 0.00, 0.00, -6241.12, 0.00, 0.000, 0.000, 0.000, 19:17:09.372
166, 0.00, 0.00, -6521.67, 0.00, 0.000, 0.000, 0.000, 19:17:09.372
167, 0.00, 0.00, -7334.92, 0.00, 0.000, 0.000, 0.000, 19:17:09.373
168, 0.00, 0.00, -6542.38, 0.00, 0.000, 0.000, 0.000, 19:17:09.373
169, 0.00, 0.00, -6253.73, 0.00, 0.000, 0.000, 0.000, 19:17:09.387
170, 0.00, 0.00, -7214.13, 0.00, 0.000, 0.000, 0.000, 19:17:09.387
171, 0.00, 0.00, -6957.37, 0.00, 0.000, 0.000, 0.000, 19:17:09.402
172, 0.00, 0.00, -6140.55, 0.00, 0.000, 0.000, 0.000, 19:17:09.402
173, 0.00, 0.00, -6964.77, 0.00, 0.000, 0.000, 0.000, 19:17:09.402
174, 0.00, 0.00, -7287.76, 0.00, 0.000, 0.000, 0.000, 19:17:09.402
175, 0.00, 0.00, -6340.85, 0.00, 0.000, 0.000, 0.000, 19:17:09.417
176, 0.00, 0.00, -6662.04, 0.00, 0.000, 0.000, 0.000, 19:17:09.417
177, 0.00, 0.00, -7484.75, 0.00, 0.000, 0.000, 0.000, 19:17:09.432
178, 0.00, 0.00, -6699.34, 0.00, 0.000, 0.000, 0.000, 19:17:09.432
179, 0.00, 0.00, -6405.84, 0.00, 0.000, 0.000, 0.000, 19:17:09.432
180, 0.00, 0.00, -6414.01, 0.00, 0.000, 0.000, 0.000, 19:17:09.432
181, 0.00, 0.00, -6132.24, 0.00, 0.000, 0.000, 0.000, 19:17:09.447
182, 0.00, 0.00, -5309.35, 0.00, 0.000, 0.000, 0.000, 19:17:09.447
183, 0.00, 0.00, -6097.91, 0.00, 0.000, 0.000, 0.000, 19:17:09.462
184, 0.00, 0.00, -6429.89, 0.00, 0.000, 0.000, 0.000, 19:17:09.462
185, 0.00, 0.00, -6405.55, 0.00, 0.000, 0.000, 0.000, 19:17:09.462
186, 0.00, 0.00, -6688.46, 0.00, 0.000, 0.000, 0.000, 19:17:09.462
187, 0.00, 0.00, -7483.44, 0.00, 0.000, 0.000, 0.000, 19:17:09.477
188, 0.00, 0.00, -6697.95, 0.00, 0.000, 0.000, 0.000, 19:17:09.477
189, 0.00, 0.00, -6357.92, 0.00, 0.000, 0.000, 0.000, 19:17:09.492
190, 0.00, 0.00, -7330.35, 0.00, 0.000, 0.000, 0.000, 19:17:09.492
191, 0.00, 0.00, -7044.72, 0.00, 0.000, 0.000, 0.000, 19:17:09.492
192, 0.00, 0.00, -6233.97, 0.00, 0.000, 0.000, 0.000, 19:17:09.492
193, 0.00, 0.00, -7018.97, 0.00, 0.000, 0.000, 0.000, 19:17:09.507
194, 0.00, 0.00, -7346.61, 0.00, 0.000, 0.000, 0.000, 19:17:09.507
195, 0.00, 0.00, -7306.37, 0.00, 0.000, 0.000, 0.000, 19:17:09.522
196, 0.00, 0.00, -7618.99, 0.00, 0.000, 0.000, 0.000, 19:17:09.522
197, 0.00, 0.00, -8406.88, 0.00, 0.000, 0.000, 0.000, 19:17:09.523
198, 0.00, 0.00, -7620.47, 0.00, 0.000, 0.000, 0.000, 19:17:09.523
199, 0.00, 0.00, -7325.12, 0.00, 0.000, 0.000, 0.000, 19:17:09.537
200, 0.00, 0.00, -8292.98, 0.00, 0.000, 0.000, 0.000, 19:17:09.537
0, 0.00, 0.00, -136.15, 0.00, 0.000, 0.000, 0.000, 19:17:09.537
1, 0.00, 0.00, 679.99, 0.00, 0.000, 0.000, 0.000, 19:17:09.552
2, 0.00, 0.00, -128.73, 0.00, 0.000, 0.000, 0.000, 19:17:09.552
3, 0.00, 0.00, -470.07, 0.00, 0.000, 0.000, 0.000, 19:17:09.567
4, 0.00, 0.00, -454.90, 0.00, 0.000, 0.000, 0.000, 19:17:09.567
5, 0.00, 0.00, -718.73, 0.00, 0.000, 0.000, 0.000, 19:17:09.567
6, 0.00, 0.00, -1531.20, 0.00, 0.000, 0.000, 0.000, 19:17:09.567
7, 0.00, 0.00, -751.79, 0.00, 0.000, 0.000, 0.000, 19:17:09.582
8, 0.00, 0.00, -427.18, 0.00, 0.000, 0.000, 0.000, 19:17:09.582
9, 0.00, 0.00, -433.28, 0.00, 0.000, 0.000, 0.000, 19:17:09.597
10, 0.00, 0.00, -145.49, 0.00, 0.000, 0.000, 0.000, 19:17:09.597
11, 0.00, 0.00, 654.14, 0.00, 0.000, 0.000, 0.000, 19:17:09.597
12, 0.00, 0.00, -119.31, 0.00, 0.000, 0.000, 0.000, 19:17:09.597
13, 0.00, 0.00, -458.14, 0.00, 0.000, 0.000, 0.000, 19:17:09.612
14, 0.00, 0.00, -447.56, 0.00, 0.000, 0.000, 0.000, 19:17:09.612
15, 0.00, 0.00, -718.90, 0.00, 0.000, 0.000, 0.000, 19:17:09.627
16, 0.00, 0.00, -1547.98, 0.00, 0.000, 0.000, 0.000, 19:17:09.627
17, 0.00, 0.00, -753.49, 0.00, 0.000, 0.000, 0.000, 19:17:09.628
18, 0.00, 0.00, -426.79, 0.00, 0.000, 0.000, 0.000, 19:17:09.628
19, 0.00, 0.00, -438.74, 0.00, 0.000, 0.000, 0.000, 19:17:09.642
20, 0.00, 0.00, -144.93, 0.00, 0.000, 0.000, 0.000, 19:17:09.642
21, 0.00, 0.00, 675.41, 0.00, 0.000, 0.000, 0.000, 19:17:09.657
22, 0.00, 0.00, -125.76, 0.00, 0.000, 0.000, 0.000, 19:17:09.657
23, 0.00, 0.00, -474.45, 0.00, 0.000, 0.000, 0.000, 19:17:09.657
24, 0.00, 0.00, -431.61, 0.00, 0.000, 0.000, 0.000, 19:17:09.658
25, 0.00, 0.00, -705.14, 0.00, 0.000, 0.000, 0.000, 19:17:09.672
26, 0.00, 0.00, -1527.07, 0.00, 0.000, 0.000, 0.000, 19:17:09.672
27, 0.00, 0.00, -745.06, 0.00, 0.000, 0.000, 0.000, 19:17:09.687
28, 0.00, 0.00, -384.18, 0.00, 0.000, 0.000, 0.000, 19:17:09.687
29, 0.00, 0.00, -397.26, 0.00, 0.000, 0.000, 0.000, 19:17:09.687
30, 0.00, 0.00, -163.98, 0.00, 0.000, 0.000, 0.000, 19:17:09.687
31, 0.00, 0.00, 658.01, 0.00, 0.000, 0.000, 0.000, 19:17:09.702
32, 0.00, 0.00, -114.55, 0.00, 0.000, 0.000, 0.000, 19:17:09.702
33, 0.00, 0.00, -447.48, 0.00, 0.000, 0.000, 0.000, 19:17:09.717
34, 0.00, 0.00, -446.30, 0.00, 0.000, 0.000, 0.000, 19:17:09.717
35, 0.00, 0.00, -714.26, 0.00, 0.000, 0.000, 0.000, 19:17:09.717
36, 0.00, 0.00, -1542.52, 0.00, 0.000, 0.000, 0.000, 19:17:09.717
37, 0.00, 0.00, -755.83, 0.00, 0.000, 0.000, 0.000, 19:17:09.732
38, 0.00, 0.00, -425.34, 0.00, 0.000, 0.000, 0.000, 19:17:09.733
39, 0.00, 0.00, -440.13, 0.00, 0.000, 0.000, 0.000, 19:17:09.747
40, 0.00, 0.00, -158.18, 0.00, 0.000, 0.000, 0.000, 19:17:09.747
41, 0.00, 0.00, 684.61, 0.00, 0.000, 0.000, 0.000, 19:17:09.747
42, 0.00, 0.00, -125.98, 0.00, 0.000, 0.000, 0.000, 19:17:09.747
43, 0.00, 0.00, -464.16, 0.00, 0.000, 0.000, 0.000, 19:17:09.762
44, 0.00, 0.00, -436.67, 0.00, 0.000, 0.000, 0.000, 19:17:09.762
45, 0.00, 0.00, -760.85, 0.00, 0.000, 0.000, 0.000, 19:17:09.777
46, 0.00, 0.00, -1527.78, 0.00, 0.000, 0.000, 0.000, 19:17:09.777
47, 0.00, 0.00, -603.89, 0.00, 0.000, 0.000, 0.000, 19:17:09.777
48, 0.00, 0.00, -114.76, 0.00, 0.000, 0.000, 0.000, 19:17:09.781
49, 0.00, 0.00, -999.23, 0.00, 0.000, 0.000, 0.000, 19:17:09.792
50, 0.00, 0.00, -710.62, 0.00, 0.000, 0.000, 0.000, 19:17:09.792
51, 0.00, 0.00, -83.86, 0.00, 0.000, 0.000, 0.000, 19:17:09.807
52, 0.00, 0.00, -147.18, 0.00, 0.000, 0.000, 0.000, 19:17:09.807
53, 0.00, 0.00, -743.06, 0.00, 0.000, 0.000, 0.000, 19:17:09.807
54, 0.00, 0.00, -662.19, 0.00, 0.000, 0.000, 0.000, 19:17:09.808
55, 0.00, 0.00, -788.05, 0.00, 0.000, 0.000, 0.000, 19:17:09.822
56, 0.00, 0.00, -1589.63, 0.00, 0.000, 0.000, 0.000, 19:17:09.822
57, 0.00, 0.00, -794.92, 0.00, 0.000, 0.000, 0.000, 19:17:09.837
58, 0.00, 0.00, -452.02, 0.00, 0.000, 0.000, 0.000, 19:17:09.837
59, 0.00, 0.00, -496.66, 0.00, 0.000, 0.000, 0.000, 19:17:09.837
60, 0.00, 0.00, -211.18, 0.00, 0.000, 0.000, 0.000, 19:17:09.838
61, 0.00, 0.00, 634.62, 0.00, 0.000, 0.000, 0.000, 19:17:09.852
62, 0.00, 0.00, -140.87, 0.00, 0.000, 0.000, 0.000, 19:17:09.852
63, 0.00, 0.00, -489.34, 0.00, 0.000, 0.000, 0.000, 19:17:09.867
64, 0.00, 0.00, -463.06, 0.00, 0.000, 0.000, 0.000, 19:17:09.867
65, 0.00, 0.00, -730.43, 0.00, 0.000, 0.000, 0.000, 19:17:09.867
66, 0.00, 0.00, -1521.66, 0.00, 0.000, 0.000, 0.000, 19:17:09.867
67, 0.00, 0.00, -771.32, 0.00, 0.000, 0.000, 0.000, 19:17:09.882
68, 0.00, 0.00, -399.10, 0.00, 0.000, 0.000, 0.000, 19:17:09.882
69, 0.00, 0.00, -414.49, 0.00, 0.000, 0.000, 0.000, 19:17:09.897
70, 0.00, 0.00, -162.67, 0.00, 0.000, 0.000, 0.000, 19:17:09.897
71, 0.00, 0.00, 675.34, 0.00, 0.000, 0.000, 0.000, 19:17:09.897
72, 0.00, 0.00, -108.62, 0.00, 0.000, 0.000, 0.000, 19:17:09.897
73, 0.00, 0.00, -446.44, 0.00, 0.000, 0.000, 0.000, 19:17:09.912
74, 0.00, 0.00, -417.27, 0.00, 0.000, 0.000, 0.000, 19:17:09.912
75, 0.00, 0.00, -683.86, 0.00, 0.000, 0.000, 0.000, 19:17:09.927
76, 0.00, 0.00, -1485.87, 0.00, 0.000, 0.000, 0.000, 19:17:09.927
77, 0.00, 0.00, -741.53, 0.00, 0.000, 0.000, 0.000, 19:17:09.927
78, 0.00, 0.00, -365.88, 0.00, 0.000, 0.000, 0.000, 19:17:09.927
79, 0.00, 0.00, -396.33, 0.00, 0.000, 0.000, 0.000, 19:17:09.942
80, 0.00, 0.00, -134.24, 0.00, 0.000, 0.000, 0.000, 19:17:09.942
81, 0.00, 0.00, 736.88, 0.00, 0.000, 0.000, 0.000, 19:17:09.957
82, 0.00, 0.00, -27.26, 0.00, 0.000, 0.000, 0.000, 19:17:09.957
83, 0.00, 0.00, -398.39, 0.00, 0.000, 0.000, 0.000, 19:17:09.957
84, 0.00, 0.00, -379.75, 0.00, 0.000, 0.000, 0.000, 19:17:09.958
85, 0.00, 0.00, -647.23, 0.00, 0.000, 0.000, 0.000, 19:17:09.972
86, 0.00, 0.00, -1463.45, 0.00, 0.000, 0.000, 0.000, 19:17:09.972
87, 0.00, 0.00, -701.27, 0.00, 0.000, 0.000, 0.000, 19:17:09.987
88, 0.00, 0.00, -306.25, 0.00, 0.000, 0.000, 0.000, 19:17:09.987
89, 0.00, 0.00, -341.86, 0.00, 0.000, 0.000, 0.000, 19:17:09.987
90, 0.00, 0.00, -90.32, 0.00, 0.000, 0.000, 0.000, 19:17:09.987
91, 0.00, 0.00, 742.07, 0.00, 0.000, 0.000, 0.000, 19:17:10.002
92, 0.00, 0.00, -53.22, 0.00, 0.000, 0.000, 0.000, 19:17:10.002
93, 0.00, 0.00, -384.04, 0.00, 0.000, 0.000, 0.000, 19:17:10.017
94, 0.00, 0.00, -376.27, 0.00, 0.000, 0.000, 0.000, 19:17:10.018
95, 0.00, 0.00, -653.96, 0.00, 0.000, 0.000, 0.000, 19:17:10.018
96, 0.00, 0.00, -1511.38, 0.00, 0.000, 0.000, 0.000, 19:17:10.018
97, 0.00, 0.00, -784.17, 0.00, 0.000, 0.000, 0.000, 19:17:10.032
98, 0.00, 0.00, -417.82, 0.00, 0.000, 0.000, 0.000, 19:17:10.032
99, 0.00, 0.00, -460.33, 0.00, 0.000, 0.000, 0.000, 19:17:10.047
100, 0.00, 0.00, -236.48, 0.00, 0.000, 0.000, 0.000, 19:17:10.047
101, 0.00, 0.00, 562.48, 0.00, 0.000, 0.000, 0.000, 19:17:10.047
102, 0.00, 0.00, -188.80, 0.00, 0.000, 0.000, 0.000, 19:17:10.047
103, 0.00, 0.00, -561.29, 0.00, 0.000, 0.000, 0.000, 19:17:10.062
104, 0.00, 0.00, -556.06, 0.00, 0.000, 0.000, 0.000, 19:17:10.062
105, 0.00, 0.00, -813.82, 0.00, 0.000, 0.000, 0.000, 19:17:10.077
106, 0.00, 0.00, -1627.63, 0.00, 0.000, 0.000, 0.000, 19:17:10.077
107, 0.00, 0.00, -855.28, 0.00, 0.000, 0.000, 0.000, 19:17:10.077
108, 0.00, 0.00, -498.64, 0.00, 0.000, 0.000, 0.000, 19:17:10.078
109, 0.00, 0.00, -502.93, 0.00, 0.000, 0.000, 0.000, 19:17:10.092
110, 0.00, 0.00, -247.28, 0.00, 0.000, 0.000, 0.000, 19:17:10.092
111, 0.00, 0.00, 602.70, 0.00, 0.000, 0.000, 0.000, 19:17:10.107
112, 0.00, 0.00, -138.74, 0.00, 0.000, 0.000, 0.000, 19:17:10.107
113, 0.00, 0.00, -496.03, 0.00, 0.000, 0.000, 0.000, 19:17:10.107
114, 0.00, 0.00, -483.54, 0.00, 0.000, 0.000, 0.000, 19:17:10.107
115, 0.00, 0.00, -745.55, 0.00, 0.000, 0.000, 0.000, 19:17:10.122
116, 0.00, 0.00, -1560.40, 0.00, 0.000, 0.000, 0.000, 19:17:10.122
117, 0.00, 0.00, -796.79, 0.00, 0.000, 0.000, 0.000, 19:17:10.137
118, 0.00, 0.00, -428.78, 0.00, 0.000, 0.000, 0.000, 19:17:10.137
119, 0.00, 0.00, -431.02, 0.00, 0.000, 0.000, 0.000, 19:17:10.137
120, 0.00, 0.00, -184.31, 0.00, 0.000, 0.000, 0.000, 19:17:10.137
121, 0.00, 0.00, 662.91, 0.00, 0.000, 0.000, 0.000, 19:17:10.152
122, 0.00, 0.00, -119.51, 0.00, 0.000, 0.000, 0.000, 19:17:10.152
123, 0.00, 0.00, -470.46, 0.00, 0.000, 0.000, 0.000, 19:17:10.167
124, 0.00, 0.00, -459.73, 0.00, 0.000, 0.000, 0.000, 19:17:10.167
125, 0.00, 0.00, -698.47, 0.00, 0.000, 0.000, 0.000, 19:17:10.167
126, 0.00, 0.00, -1534.04, 0.00, 0.000, 0.000, 0.000, 19:17:10.167
127, 0.00, 0.00, -792.85, 0.00, 0.000, 0.000, 0.000, 19:17:10.182
128, 0.00, 0.00, -404.68, 0.00, 0.000, 0.000, 0.000, 19:17:10.182
129, 0.00, 0.00, -420.10, 0.00, 0.000, 0.000, 0.000, 19:17:10.197
130, 0.00, 0.00, -152.77, 0.00, 0.000, 0.000, 0.000, 19:17:10.197
131, 0.00, 0.00, 656.03, 0.00, 0.000, 0.000, 0.000, 19:17:10.197
132, 0.00, 0.00, -94.62, 0.00, 0.000, 0.000, 0.000, 19:17:10.198
133, 0.00, 0.00, -476.94, 0.00, 0.000, 0.000, 0.000, 19:17:10.224
134, 0.00, 0.00, -454.93, 0.00, 0.000, 0.000, 0.000, 19:17:10.224
135, 0.00, 0.00, -709.89, 0.00, 0.000, 0.000, 0.000, 19:17:10.232
136, 0.00, 0.00, -1543.56, 0.00, 0.000, 0.000, 0.000, 19:17:10.232
137, 0.00, 0.00, -792.20, 0.00, 0.000, 0.000, 0.000, 19:17:10.232
138, 0.00, 0.00, -403.65, 0.00, 0.000, 0.000, 0.000, 19:17:10.232
139, 0.00, 0.00, -1370.49, 0.00, 0.000, 0.000, 0.000, 19:17:10.242
140, 0.00, 0.00, -1162.25, 0.00, 0.000, 0.000, 0.000, 19:17:10.242
141, 0.00, 0.00, -322.28, 0.00, 0.000, 0.000, 0.000, 19:17:10.257
142, 0.00, 0.00, -1089.64, 0.00, 0.000, 0.000, 0.000, 19:17:10.257
143, 0.00, 0.00, -1436.50, 0.00, 0.000, 0.000, 0.000, 19:17:10.258
144, 0.00, 0.00, -461.05, 0.00, 0.000, 0.000, 0.000, 19:17:10.258
145, 0.00, 0.00, -687.54, 0.00, 0.000, 0.000, 0.000, 19:17:10.272
146, 0.00, 0.00, -1550.75, 0.00, 0.000, 0.000, 0.000, 19:17:10.272
147, 0.00, 0.00, -782.27, 0.00, 0.000, 0.000, 0.000, 19:17:10.287
148, 0.00, 0.00, -428.22, 0.00, 0.000, 0.000, 0.000, 19:17:10.287
149, 0.00, 0.00, -433.53, 0.00, 0.000, 0.000, 0.000, 19:17:10.287
150, 0.00, 0.00, -128.90, 0.00, 0.000, 0.000, 0.000, 19:17:10.288
151, 0.00, 0.00, 682.56, 0.00, 0.000, 0.000, 0.000, 19:17:10.302
152, 0.00, 0.00, -78.87, 0.00, 0.000, 0.000, 0.000, 19:17:10.302
153, 0.00, 0.00, -460.82, 0.00, 0.000, 0.000, 0.000, 19:17:10.317
154, 0.00, 0.00, -432.67, 0.00, 0.000, 0.000, 0.000, 19:17:10.317
155, 0.00, 0.00, -678.24, 0.00, 0.000, 0.000, 0.000, 19:17:10.317
156, 0.00, 0.00, -1524.21, 0.00, 0.000, 0.000, 0.000, 19:17:10.318
157, 0.00, 0.00, -790.95, 0.00, 0.000, 0.000, 0.000, 19:17:10.332
158, 0.00, 0.00, -403.95, 0.00, 0.000, 0.000, 0.000, 19:17:10.332
159, 0.00, 0.00, -1383.53, 0.00, 0.000, 0.000, 0.000, 19:17:10.347
160, 0.00, 0.00, -1182.02, 0.00, 0.000, 0.000, 0.000, 19:17:10.347
161, 0.00, 0.00, -327.89, 0.00, 0.000, 0.000, 0.000, 19:17:10.348
162, 0.00, 0.00, -1075.70, 0.00, 0.000, 0.000, 0.000, 19:17:10.348
163, 0.00, 0.00, -1450.24, 0.00, 0.000, 0.000, 0.000, 19:17:10.362
164, 0.00, 0.00, -1427.47, 0.00, 0.000, 0.000, 0.000, 19:17:10.362
165, 0.00, 0.00, -1670.89, 0.00, 0.000, 0.000, 0.000, 19:17:10.377
166, 0.00, 0.00, -2513.98, 0.00, 0.000, 0.000, 0.000, 19:17:10.377
167, 0.00, 0.00, -1768.64, 0.00, 0.000, 0.000, 0.000, 19:17:10.377
168, 0.00, 0.00, -1387.88, 0.00, 0.000, 0.000, 0.000, 19:17:10.377
169, 0.00, 0.00, -1406.70, 0.00, 0.000, 0.000, 0.000, 19:17:10.392
170, 0.00, 0.00, -1189.08, 0.00, 0.000, 0.000, 0.000, 19:17:10.392
171, 0.00, 0.00, -314.73, 0.00, 0.000, 0.000, 0.000, 19:17:10.407
172, 0.00, 0.00, -930.74, 0.00, 0.000, 0.000, 0.000, 19:17:10.407
173, 0.00, 0.00, -1172.52, 0.00, 0.000, 0.000, 0.000, 19:17:10.408
174, 0.00, 0.00, -1069.09, 0.00, 0.000, 0.000, 0.000, 19:17:10.408
175, 0.00, 0.00, -1240.83, 0.00, 0.000, 0.000, 0.000, 19:17:10.422
176, 0.00, 0.00, -1243.50, 0.00, 0.000, 0.000, 0.000, 19:17:10.422
177, 0.00, 0.00, -770.70, 0.00, 0.000, 0.000, 0.000, 19:17:10.438
178, 0.00, 0.00, -634.40, 0.00, 0.000, 0.000, 0.000, 19:17:10.438
179, 0.00, 0.00, -640.84, 0.00, 0.000, 0.000, 0.000, 19:17:10.438
180, 0.00, 0.00, -274.82, 0.00, 0.000, 0.000, 0.000, 19:17:10.438
181, 0.00, 0.00, 625.22, 0.00, 0.000, 0.000, 0.000, 19:17:10.452
182, 0.00, 0.00, -130.64, 0.00, 0.000, 0.000, 0.000, 19:17:10.452
183, 0.00, 0.00, -519.36, 0.00, 0.000, 0.000, 0.000, 19:17:10.467
184, 0.00, 0.00, 438.77, 0.00, 0.000, 0.000, 0.000, 19:17:10.467
185, 0.00, 0.00, 222.76, 0.00, 0.000, 0.000, 0.000, 19:17:10.467
186, 0.00, 0.00, -593.90, 0.00, 0.000, 0.000, 0.000, 19:17:10.467
187, 0.00, 0.00, 168.66, 0.00, 0.000, 0.000, 0.000, 19:17:10.482
188, 0.00, 0.00, 548.08, 0.00, 0.000, 0.000, 0.000, 19:17:10.482
189, 0.00, 0.00, 545.25, 0.00, 0.000, 0.000, 0.000, 19:17:10.497
190, 0.00, 0.00, 801.83, 0.00, 0.000, 0.000, 0.000, 19:17:10.497
191, 0.00, 0.00, 1638.65, 0.00, 0.000, 0.000, 0.000, 19:17:10.497
192, 0.00, 0.00, 891.36, 0.00, 0.000, 0.000, 0.000, 19:17:10.497
193, 0.00, 0.00, 517.47, 0.00, 0.000, 0.000, 0.000, 19:17:10.512
194, 0.00, 0.00, 1494.02, 0.00, 0.000, 0.000, 0.000, 19:17:10.512
195, 0.00, 0.00, 1269.31, 0.00, 0.000, 0.000, 0.000, 19:17:10.527
196, 0.00, 0.00, 442.21, 0.00, 0.000, 0.000, 0.000, 19:17:10.527
197, 0.00, 0.00, 1183.09, 0.00, 0.000, 0.000, 0.000, 19:17:10.527
198, 0.00, 0.00, 1575.71, 0.00, 0.000, 0.000, 0.000, 19:17:10.527
199, 0.00, 0.00, 604.13, 0.00, 0.000, 0.000, 0.000, 19:17:10.542
200, 0.00, 0.00, 811.08, 0.00, 0.000, 0.000, 0.000, 19:17:10.542
0, 0.00, 0.00, 689.10, 0.00, 0.000, 0.000, 0.000, 19:17:10.543
1, 0.00, 0.00, -34.44, 0.00, 0.000, 0.000, 0.000, 19:17:10.557
2, 0.00, 0.00, -428.61, 0.00, 0.000, 0.000, 0.000, 19:17:10.557
3, 0.00, 0.00, -425.77, 0.00, 0.000, 0.000, 0.000, 19:17:10.572
4, 0.00, 0.00, -634.24, 0.00, 0.000, 0.000, 0.000, 19:17:10.572
5, 0.00, 0.00, -1488.32, 0.00, 0.000, 0.000, 0.000, 19:17:10.572
6, 0.00, 0.00, -741.25, 0.00, 0.000, 0.000, 0.000, 19:17:10.572
7, 0.00, 0.00, -362.49, 0.00, 0.000, 0.000, 0.000, 19:17:10.587
8, 0.00, 0.00, -1334.05, 0.00, 0.000, 0.000, 0.000, 19:17:10.587
9, 0.00, 0.00, -1106.37, 0.00, 0.000, 0.000, 0.000, 19:17:10.602
10, 0.00, 0.00, -234.82, 0.00, 0.000, 0.000, 0.000, 19:17:10.603
11, 0.00, 0.00, -976.94, 0.00, 0.000, 0.000, 0.000, 19:17:10.603
12, 0.00, 0.00, -1371.74, 0.00, 0.000, 0.000, 0.000, 19:17:10.603
13, 0.00, 0.00, -1363.69, 0.00, 0.000, 0.000, 0.000, 19:17:10.617
14, 0.00, 0.00, -1568.74, 0.00, 0.000, 0.000, 0.000, 19:17:10.617
15, 0.00, 0.00, -2452.93, 0.00, 0.000, 0.000, 0.000, 19:17:10.632
16, 0.00, 0.00, -1688.91, 0.00, 0.000, 0.000, 0.000, 19:17:10.632
17, 0.00, 0.00, -1325.82, 0.00, 0.000, 0.000, 0.000, 19:17:10.632
18, 0.00, 0.00, -1337.71, 0.00, 0.000, 0.000, 0.000, 19:17:10.632
19, 0.00, 0.00, -1125.76, 0.00, 0.000, 0.000, 0.000, 19:17:10.647
20, 0.00, 0.00, -279.71, 0.00, 0.000, 0.000, 0.000, 19:17:10.647
21, 0.00, 0.00, -1047.94, 0.00, 0.000, 0.000, 0.000, 19:17:10.662
22, 0.00, 0.00, -1441.43, 0.00, 0.000, 0.000, 0.000, 19:17:10.662
23, 0.00, 0.00, -517.56, 0.00, 0.000, 0.000, 0.000, 19:17:10.662
24, 0.00, 0.00, -755.01, 0.00, 0.000, 0.000, 0.000, 19:17:10.662
25, 0.00, 0.00, -1616.01, 0.00, 0.000, 0.000, 0.000, 19:17:10.677
26, 0.00, 0.00, -895.08, 0.00, 0.000, 0.000, 0.000, 19:17:10.677
27, 0.00, 0.00, -473.81, 0.00, 0.000, 0.000, 0.000, 19:17:10.692
28, 0.00, 0.00, -1443.90, 0.00, 0.000, 0.000, 0.000, 19:17:10.692
29, 0.00, 0.00, -1262.92, 0.00, 0.000, 0.000, 0.000, 19:17:10.692
30, 0.00, 0.00, -406.86, 0.00, 0.000, 0.000, 0.000, 19:17:10.692
31, 0.00, 0.00, -1190.46, 0.00, 0.000, 0.000, 0.000, 19:17:10.707
32, 0.00, 0.00, -1530.14, 0.00, 0.000, 0.000, 0.000, 19:17:10.707
33, 0.00, 0.00, -553.12, 0.00, 0.000, 0.000, 0.000, 19:17:10.722
34, 0.00, 0.00, -746.49, 0.00, 0.000, 0.000, 0.000, 19:17:10.722
35, 0.00, 0.00, -1587.81, 0.00, 0.000, 0.000, 0.000, 19:17:10.722
36, 0.00, 0.00, -852.93, 0.00, 0.000, 0.000, 0.000, 19:17:10.722
37, 0.00, 0.00, -437.69, 0.00, 0.000, 0.000, 0.000, 19:17:10.737
38, 0.00, 0.00, -1417.73, 0.00, 0.000, 0.000, 0.000, 19:17:10.737
39, 0.00, 0.00, -1204.72, 0.00, 0.000, 0.000, 0.000, 19:17:10.753
40, 0.00, 0.00, -357.34, 0.00, 0.000, 0.000, 0.000, 19:17:10.753
41, 0.00, 0.00, -1091.91, 0.00, 0.000, 0.000, 0.000, 19:17:10.753
42, 0.00, 0.00, -1477.51, 0.00, 0.000, 0.000, 0.000, 19:17:10.753
43, 0.00, 0.00, -1450.31, 0.00, 0.000, 0.000, 0.000, 19:17:10.767
44, 0.00, 0.00, -1690.73, 0.00, 0.000, 0.000, 0.000, 19:17:10.767
45, 0.00, 0.00, -2511.80, 0.00, 0.000, 0.000, 0.000, 19:17:10.782
46, 0.00, 0.00, -1785.89, 0.00, 0.000, 0.000, 0.000, 19:17:10.782
47, 0.00, 0.00, -1372.66, 0.00, 0.000, 0.000, 0.000, 19:17:10.797
48, 0.00, 0.00, -1379.06, 0.00, 0.000, 0.000, 0.000, 19:17:10.797
49, 0.00, 0.00, -1199.66, 0.00, 0.000, 0.000, 0.000, 19:17:10.797
50, 0.00, 0.00, -311.54, 0.00, 0.000, 0.000, 0.000, 19:17:10.798
51, 0.00, 0.00, -1044.71, 0.00, 0.000, 0.000, 0.000, 19:17:10.812
52, 0.00, 0.00, -1438.31, 0.00, 0.000, 0.000, 0.000, 19:17:10.812
53, 0.00, 0.00, -463.55, 0.00, 0.000, 0.000, 0.000, 19:17:10.812
54, 0.00, 0.00, -703.59, 0.00, 0.000, 0.000, 0.000, 19:17:10.813
55, 0.00, 0.00, -1531.23, 0.00, 0.000, 0.000, 0.000, 19:17:10.827
56, 0.00, 0.00, -799.22, 0.00, 0.000, 0.000, 0.000, 19:17:10.827
57, 0.00, 0.00, -418.10, 0.00, 0.000, 0.000, 0.000, 19:17:10.842
58, 0.00, 0.00, -1373.03, 0.00, 0.000, 0.000, 0.000, 19:17:10.842
59, 0.00, 0.00, -1173.07, 0.00, 0.000, 0.000, 0.000, 19:17:10.842
60, 0.00, 0.00, -311.36, 0.00, 0.000, 0.000, 0.000, 19:17:10.842
61, 0.00, 0.00, -1062.58, 0.00, 0.000, 0.000, 0.000, 19:17:10.857
62, 0.00, 0.00, -1446.25, 0.00, 0.000, 0.000, 0.000, 19:17:10.857
63, 0.00, 0.00, -485.15, 0.00, 0.000, 0.000, 0.000, 19:17:10.872
64, 0.00, 0.00, -682.27, 0.00, 0.000, 0.000, 0.000, 19:17:10.872
65, 0.00, 0.00, -1527.81, 0.00, 0.000, 0.000, 0.000, 19:17:10.873
66, 0.00, 0.00, -798.73, 0.00, 0.000, 0.000, 0.000, 19:17:10.873
67, 0.00, 0.00, -406.69, 0.00, 0.000, 0.000, 0.000, 19:17:10.887
68, 0.00, 0.00, -1381.43, 0.00, 0.000, 0.000, 0.000, 19:17:10.887
69, 0.00, 0.00, -1175.59, 0.00, 0.000, 0.000, 0.000, 19:17:10.902
70, 0.00, 0.00, -323.84, 0.00, 0.000, 0.000, 0.000, 19:17:10.902
71, 0.00, 0.00, -1057.63, 0.00, 0.000, 0.000, 0.000, 19:17:10.902
72, 0.00, 0.00, -1454.61, 0.00, 0.000, 0.000, 0.000, 19:17:10.902
73, 0.00, 0.00, -1445.61, 0.00, 0.000, 0.000, 0.000, 19:17:10.917
74, 0.00, 0.00, -1671.63, 0.00, 0.000, 0.000, 0.000, 19:17:10.917
75, 0.00, 0.00, -2507.77, 0.00, 0.000, 0.000, 0.000, 19:17:10.932
76, 0.00, 0.00, -1778.00, 0.00, 0.000, 0.000, 0.000, 19:17:10.932
77, 0.00, 0.00, -1356.29, 0.00, 0.000, 0.000, 0.000, 19:17:10.932
78, 0.00, 0.00, -2332.09, 0.00, 0.000, 0.000, 0.000, 19:17:10.933
79, 0.00, 0.00, -2128.98, 0.00, 0.000, 0.000, 0.000, 19:17:10.947
80, 0.00, 0.00, -1294.61, 0.00, 0.000, 0.000, 0.000, 19:17:10.947
81, 0.00, 0.00, -2013.82, 0.00, 0.000, 0.000, 0.000, 19:17:10.962
82, 0.00, 0.00, -2419.93, 0.00, 0.000, 0.000, 0.000, 19:17:10.962
83, 0.00, 0.00, -1486.29, 0.00, 0.000, 0.000, 0.000, 19:17:10.977
84, 0.00, 0.00, -1656.72, 0.00, 0.000, 0.000, 0.000, 19:17:10.977
85, 0.00, 0.00, -2518.34, 0.00, 0.000, 0.000, 0.000, 19:17:10.977
86, 0.00, 0.00, -1799.39, 0.00, 0.000, 0.000, 0.000, 19:17:10.977
87, 0.00, 0.00, -1390.61, 0.00, 0.000, 0.000, 0.000, 19:17:10.992
88, 0.00, 0.00, -2333.12, 0.00, 0.000, 0.000, 0.000, 19:17:10.992
89, 0.00, 0.00, -2151.31, 0.00, 0.000, 0.000, 0.000, 19:17:10.993
90, 0.00, 0.00, -1294.70, 0.00, 0.000, 0.000, 0.000, 19:17:10.993
91, 0.00, 0.00, -2030.66, 0.00, 0.000, 0.000, 0.000, 19:17:11.007
92, 0.00, 0.00, -2453.05, 0.00, 0.000, 0.000, 0.000, 19:17:11.007
93, 0.00, 0.00, -2433.20, 0.00, 0.000, 0.000, 0.000, 19:17:11.022
94, 0.00, 0.00, -2650.69, 0.00, 0.000, 0.000, 0.000, 19:17:11.022
95, 0.00, 0.00, -3506.92, 0.00, 0.000, 0.000, 0.000, 19:17:11.022
96, 0.00, 0.00, -2802.29, 0.00, 0.000, 0.000, 0.000, 19:17:11.023
97, 0.00, 0.00, -2306.29, 0.00, 0.000, 0.000, 0.000, 19:17:11.037
98, 0.00, 0.00, -3144.23, 0.00, 0.000, 0.000, 0.000, 19:17:11.037
99, 0.00, 0.00, -2828.79, 0.00, 0.000, 0.000, 0.000, 19:17:11.052
100, 0.00, 0.00, -1913.16, 0.00, 0.000, 0.000, 0.000, 19:17:11.052
101, 0.00, 0.00, -2584.07, 0.00, 0.000, 0.000, 0.000, 19:17:11.052
102, 0.00, 0.00, -3242.72, 0.00, 0.000, 0.000, 0.000, 19:17:11.052
103, 0.00, 0.00, -2508.85, 0.00, 0.000, 0.000, 0.000, 19:17:11.067
104, 0.00, 0.00, -2880.97, 0.00, 0.000, 0.000, 0.000, 19:17:11.067
105, 0.00, 0.00, -3654.66, 0.00, 0.000, 0.000, 0.000, 19:17:11.082
106, 0.00, 0.00, -2819.99, 0.00, 0.000, 0.000, 0.000, 19:17:11.082
107, 0.00, 0.00, -2433.84, 0.00, 0.000, 0.000, 0.000, 19:17:11.083
108, 0.00, 0.00, -3380.24, 0.00, 0.000, 0.000, 0.000, 19:17:11.083
109, 0.00, 0.00, -3175.46, 0.00, 0.000, 0.000, 0.000, 19:17:11.097
110, 0.00, 0.00, -2325.96, 0.00, 0.000, 0.000, 0.000, 19:17:11.097
111, 0.00, 0.00, -3074.53, 0.00, 0.000, 0.000, 0.000, 19:17:11.112
112, 0.00, 0.00, -3447.07, 0.00, 0.000, 0.000, 0.000, 19:17:11.112
113, 0.00, 0.00, -2474.20, 0.00, 0.000, 0.000, 0.000, 19:17:11.112
114, 0.00, 0.00, -2655.04, 0.00, 0.000, 0.000, 0.000, 19:17:11.112
115, 0.00, 0.00, -3518.26, 0.00, 0.000, 0.000, 0.000, 19:17:11.127
116, 0.00, 0.00, -2793.83, 0.00, 0.000, 0.000, 0.000, 19:17:11.127
117, 0.00, 0.00, -2359.23, 0.00, 0.000, 0.000, 0.000, 19:17:11.142
118, 0.00, 0.00, -3319.24, 0.00, 0.000, 0.000, 0.000, 19:17:11.142
119, 0.00, 0.00, -3145.02, 0.00, 0.000, 0.000, 0.000, 19:17:11.143
120, 0.00, 0.00, -2285.60, 0.00, 0.000, 0.000, 0.000, 19:17:11.143
121, 0.00, 0.00, -2979.43, 0.00, 0.000, 0.000, 0.000, 19:17:11.157
122, 0.00, 0.00, -3396.79, 0.00, 0.000, 0.000, 0.000, 19:17:11.157
123, 0.00, 0.00, -2424.87, 0.00, 0.000, 0.000, 0.000, 19:17:11.172
124, 0.00, 0.00, -2630.16, 0.00, 0.000, 0.000, 0.000, 19:17:11.172
125, 0.00, 0.00, -3453.60, 0.00, 0.000, 0.000, 0.000, 19:17:11.172
126, 0.00, 0.00, -2731.35, 0.00, 0.000, 0.000, 0.000, 19:17:11.173
127, 0.00, 0.00, -2303.79, 0.00, 0.000, 0.000, 0.000, 19:17:11.187
128, 0.00, 0.00, -2348.16, 0.00, 0.000, 0.000, 0.000, 19:17:11.187
129, 0.00, 0.00, -2129.69, 0.00, 0.000, 0.000, 0.000, 19:17:11.202
130, 0.00, 0.00, -1266.55, 0.00, 0.000, 0.000, 0.000, 19:17:11.202
131, 0.00, 0.00, -1965.93, 0.00, 0.000, 0.000, 0.000, 19:17:11.202
132, 0.00, 0.00, -2375.33, 0.00, 0.000, 0.000, 0.000, 19:17:11.202
133, 0.00, 0.00, -2362.47, 0.00, 0.000, 0.000, 0.000, 19:17:11.217
134, 0.00, 0.00, -2579.86, 0.00, 0.000, 0.000, 0.000, 19:17:11.217
135, 0.00, 0.00, -3460.82, 0.00, 0.000, 0.000, 0.000, 19:17:11.232
136, 0.00, 0.00, -2701.91, 0.00, 0.000, 0.000, 0.000, 19:17:11.232
137, 0.00, 0.00, -2264.32, 0.00, 0.000, 0.000, 0.000, 19:17:11.232
138, 0.00, 0.00, -2268.30, 0.00, 0.000, 0.000, 0.000, 19:17:11.232
139, 0.00, 0.00, -2068.75, 0.00, 0.000, 0.000, 0.000, 19:17:11.247
140, 0.00, 0.00, -1216.92, 0.00, 0.000, 0.000, 0.000, 19:17:11.247
141, 0.00, 0.00, -1946.23, 0.00, 0.000, 0.000, 0.000, 19:17:11.262
142, 0.00, 0.00, -2371.16, 0.00, 0.000, 0.000, 0.000, 19:17:11.262
143, 0.00, 0.00, -2355.19, 0.00, 0.000, 0.000, 0.000, 19:17:11.262
144, 0.00, 0.00, -2581.62, 0.00, 0.000, 0.000, 0.000, 19:17:11.262
145, 0.00, 0.00, -3414.00, 0.00, 0.000, 0.000, 0.000, 19:17:11.277
146, 0.00, 0.00, -2721.48, 0.00, 0.000, 0.000, 0.000, 19:17:11.277
147, 0.00, 0.00, -2331.84, 0.00, 0.000, 0.000, 0.000, 19:17:11.292
148, 0.00, 0.00, -2336.68, 0.00, 0.000, 0.000, 0.000, 19:17:11.292
149, 0.00, 0.00, -2185.41, 0.00, 0.000, 0.000, 0.000, 19:17:11.292
150, 0.00, 0.00, -1362.81, 0.00, 0.000, 0.000, 0.000, 19:17:11.292
151, 0.00, 0.00, -2072.26, 0.00, 0.000, 0.000, 0.000, 19:17:11.307
152, 0.00, 0.00, -2504.02, 0.00, 0.000, 0.000, 0.000, 19:17:11.307
153, 0.00, 0.00, -1534.65, 0.00, 0.000, 0.000, 0.000, 19:17:11.322
154, 0.00, 0.00, -1746.18, 0.00, 0.000, 0.000, 0.000, 19:17:11.322
155, 0.00, 0.00, -2639.80, 0.00, 0.000, 0.000, 0.000, 19:17:11.322
156, 0.00, 0.00, -1910.18, 0.00, 0.000, 0.000, 0.000, 19:17:11.322
157, 0.00, 0.00, -1461.25, 0.00, 0.000, 0.000, 0.000, 19:17:11.337
158, 0.00, 0.00, -2430.16, 0.00, 0.000, 0.000, 0.000, 19:17:11.337
159, 0.00, 0.00, -2244.37, 0.00, 0.000, 0.000, 0.000, 19:17:11.352
160, 0.00, 0.00, -1367.65, 0.00, 0.000, 0.000, 0.000, 19:17:11.352
161, 0.00, 0.00, -2071.57, 0.00, 0.000, 0.000, 0.000, 19:17:11.352
162, 0.00, 0.00, -2509.11, 0.00, 0.000, 0.000, 0.000, 19:17:11.352
163, 0.00, 0.00, -1530.47, 0.00, 0.000, 0.000, 0.000, 19:17:11.367
164, 0.00, 0.00, -1693.68, 0.00, 0.000, 0.000, 0.000, 19:17:11.367
165, 0.00, 0.00, -2544.60, 0.00, 0.000, 0.000, 0.000, 19:17:11.382
166, 0.00, 0.00, -1825.12, 0.00, 0.000, 0.000, 0.000, 19:17:11.382
167, 0.00, 0.00, -1391.28, 0.00, 0.000, 0.000, 0.000, 19:17:11.382
168, 0.00, 0.00, -1395.50, 0.00, 0.000, 0.000, 0.000, 19:17:11.382
169, 0.00, 0.00, -1216.23, 0.00, 0.000, 0.000, 0.000, 19:17:11.397
170, 0.00, 0.00, -338.46, 0.00, 0.000, 0.000, 0.000, 19:17:11.397
171, 0.00, 0.00, -1044.60, 0.00, 0.000, 0.000, 0.000, 19:17:11.412
172, 0.00, 0.00, -1481.89, 0.00, 0.000, 0.000, 0.000, 19:17:11.412
173, 0.00, 0.00, -508.18, 0.00, 0.000, 0.000, 0.000, 19:17:11.412
174, 0.00, 0.00, -678.09, 0.00, 0.000, 0.000, 0.000, 19:17:11.412
175, 0.00, 0.00, -1513.74, 0.00, 0.000, 0.000, 0.000, 19:17:11.427
176, 0.00, 0.00, -838.07, 0.00, 0.000, 0.000, 0.000, 19:17:11.427
177, 0.00, 0.00, -375.77, 0.00, 0.000, 0.000, 0.000, 19:17:11.442
178, 0.00, 0.00, -380.58, 0.00, 0.000, 0.000, 0.000, 19:17:11.442
179, 0.00, 0.00, -210.23, 0.00, 0.000, 0.000, 0.000, 19:17:11.442
180, 0.00, 0.00, 644.88, 0.00, 0.000, 0.000, 0.000, 19:17:11.442
181, 0.00, 0.00, -45.40, 0.00, 0.000, 0.000, 0.000, 19:17:11.457
182, 0.00, 0.00, -504.82, 0.00, 0.000, 0.000, 0.000, 19:17:11.457
183, 0.00, 0.00, -499.03, 0.00, 0.000, 0.000, 0.000, 19:17:11.472
184, 0.00, 0.00, -665.81, 0.00, 0.000, 0.000, 0.000, 19:17:11.472
185, 0.00, 0.00, -1524.78, 0.00, 0.000, 0.000, 0.000, 19:17:11.472
186, 0.00, 0.00, -827.28, 0.00, 0.000, 0.000, 0.000, 19:17:11.472
187, 0.00, 0.00, -386.57, 0.00, 0.000, 0.000, 0.000, 19:17:11.487
188, 0.00, 0.00, -401.12, 0.00, 0.000, 0.000, 0.000, 19:17:11.487
189, 0.00, 0.00, -210.24, 0.00, 0.000, 0.000, 0.000, 19:17:11.502
190, 0.00, 0.00, 656.43, 0.00, 0.000, 0.000, 0.000, 19:17:11.502
191, 0.00, 0.00, -53.81, 0.00, 0.000, 0.000, 0.000, 19:17:11.503
192, 0.00, 0.00, -486.81, 0.00, 0.000, 0.000, 0.000, 19:17:11.503
193, 0.00, 0.00, -478.96, 0.00, 0.000, 0.000, 0.000, 19:17:11.517
194, 0.00, 0.00, -663.12, 0.00, 0.000, 0.000, 0.000, 19:17:11.517
195, 0.00, 0.00, -1533.02, 0.00, 0.000, 0.000, 0.000, 19:17:11.532
196, 0.00, 0.00, -819.31, 0.00, 0.000, 0.000, 0.000, 19:17:11.532
197, 0.00, 0.00, -385.67, 0.00, 0.000, 0.000, 0.000, 19:17:11.533
198, 0.00, 0.00, -1347.87, 0.00, 0.000, 0.000, 0.000, 19:17:11.534
199, 0.00, 0.00, -1195.92, 0.00, 0.000, 0.000, 0.000, 19:17:11.547
200, 0.00, 0.00, -321.24, 0.00, 0.000, 0.000, 0.000, 19:17:11.547
0, 0.00, 0.00, -44.33, 0.00, 0.000, 0.000, 0.000, 19:17:11.547
1, 0.00, 0.00, -515.06, 0.00, 0.000, 0.000, 0.000, 19:17:11.562
2, 0.00, 0.00, -497.12, 0.00, 0.000, 0.000, 0.000, 19:17:11.562
3, 0.00, 0.00, -661.24, 0.00, 0.000, 0.000, 0.000, 19:17:11.577
4, 0.00, 0.00, -1524.34, 0.00, 0.000, 0.000, 0.000, 19:17:11.577
5, 0.00, 0.00, -824.73, 0.00, 0.000, 0.000, 0.000, 19:17:11.577
6, 0.00, 0.00, -389.32, 0.00, 0.000, 0.000, 0.000, 19:17:11.577
7, 0.00, 0.00, -1361.31, 0.00, 0.000, 0.000, 0.000, 19:17:11.592
8, 0.00, 0.00, -1188.60, 0.00, 0.000, 0.000, 0.000, 19:17:11.592
9, 0.00, 0.00, -310.88, 0.00, 0.000, 0.000, 0.000, 19:17:11.607
10, 0.00, 0.00, -1011.93, 0.00, 0.000, 0.000, 0.000, 19:17:11.607
11, 0.00, 0.00, -1410.89, 0.00, 0.000, 0.000, 0.000, 19:17:11.607
12, 0.00, 0.00, -442.15, 0.00, 0.000, 0.000, 0.000, 19:17:11.608
13, 0.00, 0.00, -652.71, 0.00, 0.000, 0.000, 0.000, 19:17:11.622
14, 0.00, 0.00, -1460.44, 0.00, 0.000, 0.000, 0.000, 19:17:11.622
15, 0.00, 0.00, -846.45, 0.00, 0.000, 0.000, 0.000, 19:17:11.637
16, 0.00, 0.00, -449.72, 0.00, 0.000, 0.000, 0.000, 19:17:11.637
17, 0.00, 0.00, -1342.09, 0.00, 0.000, 0.000, 0.000, 19:17:11.637
18, 0.00, 0.00, -1140.73, 0.00, 0.000, 0.000, 0.000, 19:17:11.638
19, 0.00, 0.00, -316.56, 0.00, 0.000, 0.000, 0.000, 19:17:11.652
20, 0.00, 0.00, -1037.58, 0.00, 0.000, 0.000, 0.000, 19:17:11.652
21, 0.00, 0.00, -1413.54, 0.00, 0.000, 0.000, 0.000, 19:17:11.667
22, 0.00, 0.00, -513.48, 0.00, 0.000, 0.000, 0.000, 19:17:11.667
23, 0.00, 0.00, -701.02, 0.00, 0.000, 0.000, 0.000, 19:17:11.667
24, 0.00, 0.00, -1504.98, 0.00, 0.000, 0.000, 0.000, 19:17:11.667
25, 0.00, 0.00, -881.22, 0.00, 0.000, 0.000, 0.000, 19:17:11.682
26, 0.00, 0.00, -404.17, 0.00, 0.000, 0.000, 0.000, 19:17:11.682
27, 0.00, 0.00, -432.45, 0.00, 0.000, 0.000, 0.000, 19:17:11.697
28, 0.00, 0.00, -278.52, 0.00, 0.000, 0.000, 0.000, 19:17:11.697
29, 0.00, 0.00, 619.97, 0.00, 0.000, 0.000, 0.000, 19:17:11.712
30, 0.00, 0.00, -13.62, 0.00, 0.000, 0.000, 0.000, 19:17:11.712
31, 0.00, 0.00, -199.92, 0.00, 0.000, 0.000, 0.000, 19:17:11.712
32, 0.00, 0.00, 24.23, 0.00, 0.000, 0.000, 0.000, 19:17:11.712
33, 0.00, 0.00, -259.96, 0.00, 0.000, 0.000, 0.000, 19:17:11.727
34, 0.00, 0.00, -293.75, 0.00, 0.000, 0.000, 0.000, 19:17:11.727
35, 0.00, 0.00, 275.72, 0.00, 0.000, 0.000, 0.000, 19:17:11.727
36, 0.00, 0.00, 475.64, 0.00, 0.000, 0.000, 0.000, 19:17:11.727
37, 0.00, 0.00, 343.64, 0.00, 0.000, 0.000, 0.000, 19:17:11.742
38, 0.00, 0.00, 625.62, 0.00, 0.000, 0.000, 0.000, 19:17:11.742
39, 0.00, 0.00, 1528.35, 0.00, 0.000, 0.000, 0.000, 19:17:11.757
40, 0.00, 0.00, 851.00, 0.00, 0.000, 0.000, 0.000, 19:17:11.757
41, 0.00, 0.00, 447.42, 0.00, 0.000, 0.000, 0.000, 19:17:11.757
42, 0.00, 0.00, 1282.04, 0.00, 0.000, 0.000, 0.000, 19:17:11.757
43, 0.00, 0.00, 1204.44, 0.00, 0.000, 0.000, 0.000, 19:17:11.772
44, 0.00, 0.00, 401.78, 0.00, 0.000, 0.000, 0.000, 19:17:11.772
45, 0.00, 0.00, 1087.77, 0.00, 0.000, 0.000, 0.000, 19:17:11.787
46, 0.00, 0.00, 1394.44, 0.00, 0.000, 0.000, 0.000, 19:17:11.787
47, 0.00, 0.00, 652.38, 0.00, 0.000, 0.000, 0.000, 19:17:11.787
48, 0.00, 0.00, 767.97, 0.00, 0.000, 0.000, 0.000, 19:17:11.788
49, 0.00, 0.00, 1493.17, 0.00, 0.000, 0.000, 0.000, 19:17:11.802
50, 0.00, 0.00, 822.70, 0.00, 0.000, 0.000, 0.000, 19:17:11.802
51, 0.00, 0.00, 502.24, 0.00, 0.000, 0.000, 0.000, 19:17:11.817
52, 0.00, 0.00, 1294.88, 0.00, 0.000, 0.000, 0.000, 19:17:11.817
53, 0.00, 0.00, 1241.79, 0.00, 0.000, 0.000, 0.000, 19:17:11.817
54, 0.00, 0.00, 1240.97, 0.00, 0.000, 0.000, 0.000, 19:17:11.818
55, 0.00, 0.00, 2103.56, 0.00, 0.000, 0.000, 0.000, 19:17:11.832
56, 0.00, 0.00, 2597.49, 0.00, 0.000, 0.000, 0.000, 19:17:11.832
57, 0.00, 0.00, 2567.55, 0.00, 0.000, 0.000, 0.000, 19:17:11.847
58, 0.00, 0.00, 2700.33, 0.00, 0.000, 0.000, 0.000, 19:17:11.847
59, 0.00, 0.00, 3634.06, 0.00, 0.000, 0.000, 0.000, 19:17:11.847
60, 0.00, 0.00, 2928.97, 0.00, 0.000, 0.000, 0.000, 19:17:11.847
61, 0.00, 0.00, 2430.88, 0.00, 0.000, 0.000, 0.000, 19:17:11.862
62, 0.00, 0.00, 3220.74, 0.00, 0.000, 0.000, 0.000, 19:17:11.862
63, 0.00, 0.00, 3270.32, 0.00, 0.000, 0.000, 0.000, 19:17:11.877
64, 0.00, 0.00, 2336.88, 0.00, 0.000, 0.000, 0.000, 19:17:11.877
65, 0.00, 0.00, 2993.66, 0.00, 0.000, 0.000, 0.000, 19:17:11.892
66, 0.00, 0.00, 3411.16, 0.00, 0.000, 0.000, 0.000, 19:17:11.892
67, 0.00, 0.00, 2607.10, 0.00, 0.000, 0.000, 0.000, 19:17:11.893
68, 0.00, 0.00, 2749.08, 0.00, 0.000, 0.000, 0.000, 19:17:11.893
69, 0.00, 0.00, 3681.31, 0.00, 0.000, 0.000, 0.000, 19:17:11.907
70, 0.00, 0.00, 2847.47, 0.00, 0.000, 0.000, 0.000, 19:17:11.907
71, 0.00, 0.00, 2433.40, 0.00, 0.000, 0.000, 0.000, 19:17:11.907
72, 0.00, 0.00, 2476.29, 0.00, 0.000, 0.000, 0.000, 19:17:11.907
73, 0.00, 0.00, 2318.32, 0.00, 0.000, 0.000, 0.000, 19:17:11.922
74, 0.00, 0.00, 1426.13, 0.00, 0.000, 0.000, 0.000, 19:17:11.922
75, 0.00, 0.00, 2089.33, 0.00, 0.000, 0.000, 0.000, 19:17:11.937
76, 0.00, 0.00, 2556.73, 0.00, 0.000, 0.000, 0.000, 19:17:11.937
77, 0.00, 0.00, 1689.27, 0.00, 0.000, 0.000, 0.000, 19:17:11.937
78, 0.00, 0.00, 1929.75, 0.00, 0.000, 0.000, 0.000, 19:17:11.937
79, 0.00, 0.00, 2465.59, 0.00, 0.000, 0.000, 0.000, 19:17:11.952
80, 0.00, 0.00, 1740.05, 0.00, 0.000, 0.000, 0.000, 19:17:11.952
81, 0.00, 0.00, 1359.08, 0.00, 0.000, 0.000, 0.000, 19:17:11.967
82, 0.00, 0.00, 1469.20, 0.00, 0.000, 0.000, 0.000, 19:17:11.967
83, 0.00, 0.00, 1273.90, 0.00, 0.000, 0.000, 0.000, 19:17:11.967
84, 0.00, 0.00, 443.50, 0.00, 0.000, 0.000, 0.000, 19:17:11.968
85, 0.00, 0.00, 1082.03, 0.00, 0.000, 0.000, 0.000, 19:17:11.982
86, 0.00, 0.00, 1194.09, 0.00, 0.000, 0.000, 0.000, 19:17:11.982
87, 0.00, 0.00, 317.03, 0.00, 0.000, 0.000, 0.000, 19:17:11.997
88, 0.00, 0.00, 538.88, 0.00, 0.000, 0.000, 0.000, 19:17:11.997
89, 0.00, 0.00, 1414.47, 0.00, 0.000, 0.000, 0.000, 19:17:11.998
90, 0.00, 0.00, 890.56, 0.00, 0.000, 0.000, 0.000, 19:17:11.998
91, 0.00, 0.00, 374.56, 0.00, 0.000, 0.000, 0.000, 19:17:12.012
92, 0.00, 0.00, 1096.00, 0.00, 0.000, 0.000, 0.000, 19:17:12.012
93, 0.00, 0.00, 1112.46, 0.00, 0.000, 0.000, 0.000, 19:17:12.027
94, 0.00, 0.00, 332.33, 0.00, 0.000, 0.000, 0.000, 19:17:12.027
95, 0.00, 0.00, 782.66, 0.00, 0.000, 0.000, 0.000, 19:17:12.027
96, 0.00, 0.00, 1278.13, 0.00, 0.000, 0.000, 0.000, 19:17:12.027
97, 0.00, 0.00, 584.93, 0.00, 0.000, 0.000, 0.000, 19:17:12.042
98, 0.00, 0.00, 622.42, 0.00, 0.000, 0.000, 0.000, 19:17:12.042
99, 0.00, 0.00, 1448.07, 0.00, 0.000, 0.000, 0.000, 19:17:12.057
100, 0.00, 0.00, 819.30, 0.00, 0.000, 0.000, 0.000, 19:17:12.057
101, 0.00, 0.00, 459.08, 0.00, 0.000, 0.000, 0.000, 19:17:12.057
102, 0.00, 0.00, 1367.80, 0.00, 0.000, 0.000, 0.000, 19:17:12.057
103, 0.00, 0.00, 1232.55, 0.00, 0.000, 0.000, 0.000, 19:17:12.072
104, 0.00, 0.00, 404.29, 0.00, 0.000, 0.000, 0.000, 19:17:12.072
105, 0.00, 0.00, 1134.66, 0.00, 0.000, 0.000, 0.000, 19:17:12.087
106, 0.00, 0.00, 1529.13, 0.00, 0.000, 0.000, 0.000, 19:17:12.087
107, 0.00, 0.00, 655.85, 0.00, 0.000, 0.000, 0.000, 19:17:12.087
108, 0.00, 0.00, 855.64, 0.00, 0.000, 0.000, 0.000, 19:17:12.087
109, 0.00, 0.00, 1633.62, 0.00, 0.000, 0.000, 0.000, 19:17:12.102
110, 0.00, 0.00, 984.42, 0.00, 0.000, 0.000, 0.000, 19:17:12.102
111, 0.00, 0.00, 597.72, 0.00, 0.000, 0.000, 0.000, 19:17:12.117
112, 0.00, 0.00, 1541.62, 0.00, 0.000, 0.000, 0.000, 19:17:12.117
113, 0.00, 0.00, 1419.23, 0.00, 0.000, 0.000, 0.000, 19:17:12.117
114, 0.00, 0.00, 614.43, 0.00, 0.000, 0.000, 0.000, 19:17:12.117
115, 0.00, 0.00, 1237.04, 0.00, 0.000, 0.000, 0.000, 19:17:12.132
116, 0.00, 0.00, 1686.43, 0.00, 0.000, 0.000, 0.000, 19:17:12.132
117, 0.00, 0.00, 744.17, 0.00, 0.000, 0.000, 0.000, 19:17:12.147
118, 0.00, 0.00, 891.38, 0.00, 0.000, 0.000, 0.000, 19:17:12.147
119, 0.00, 0.00, 1737.80, 0.00, 0.000, 0.000, 0.000, 19:17:12.147
120, 0.00, 0.00, 1045.43, 0.00, 0.000, 0.000, 0.000, 19:17:12.147
121, 0.00, 0.00, 628.34, 0.00, 0.000, 0.000, 0.000, 19:17:12.162
122, 0.00, 0.00, 1554.06, 0.00, 0.000, 0.000, 0.000, 19:17:12.162
123, 0.00, 0.00, 1363.72, 0.00, 0.000, 0.000, 0.000, 19:17:12.177
124, 0.00, 0.00, 512.31, 0.00, 0.000, 0.000, 0.000, 19:17:12.177
125, 0.00, 0.00, 1085.36, 0.00, 0.000, 0.000, 0.000, 19:17:12.177
126, 0.00, 0.00, 1598.97, 0.00, 0.000, 0.000, 0.000, 19:17:12.178
127, 0.00, 0.00, 647.04, 0.00, 0.000, 0.000, 0.000, 19:17:12.192
128, 0.00, 0.00, 714.71, 0.00, 0.000, 0.000, 0.000, 19:17:12.192
129, 0.00, 0.00, 1544.01, 0.00, 0.000, 0.000, 0.000, 19:17:12.208
130, 0.00, 0.00, 1046.89, 0.00, 0.000, 0.000, 0.000, 19:17:12.208
131, 0.00, 0.00, 533.20, 0.00, 0.000, 0.000, 0.000, 19:17:12.208
132, 0.00, 0.00, 1386.28, 0.00, 0.000, 0.000, 0.000, 19:17:12.208
133, 0.00, 0.00, 1319.43, 0.00, 0.000, 0.000, 0.000, 19:17:12.222
134, 0.00, 0.00, 536.47, 0.00, 0.000, 0.000, 0.000, 19:17:12.222
135, 0.00, 0.00, 1207.80, 0.00, 0.000, 0.000, 0.000, 19:17:12.237
136, 0.00, 0.00, 1607.03, 0.00, 0.000, 0.000, 0.000, 19:17:12.237
137, 0.00, 0.00, 667.39, 0.00, 0.000, 0.000, 0.000, 19:17:12.237
138, 0.00, 0.00, 746.93, 0.00, 0.000, 0.000, 0.000, 19:17:12.237
139, 0.00, 0.00, 1588.40, 0.00, 0.000, 0.000, 0.000, 19:17:12.252
140, 0.00, 0.00, 941.13, 0.00, 0.000, 0.000, 0.000, 19:17:12.252
141, 0.00, 0.00, 470.68, 0.00, 0.000, 0.000, 0.000, 19:17:12.267
142, 0.00, 0.00, 1422.59, 0.00, 0.000, 0.000, 0.000, 19:17:12.267
143, 0.00, 0.00, 1257.10, 0.00, 0.000, 0.000, 0.000, 19:17:12.267
144, 0.00, 0.00, 415.21, 0.00, 0.000, 0.000, 0.000, 19:17:12.267
145, 0.00, 0.00, 1063.65, 0.00, 0.000, 0.000, 0.000, 19:17:12.282
146, 0.00, 0.00, 1531.95, 0.00, 0.000, 0.000, 0.000, 19:17:12.282
147, 0.00, 0.00, 588.37, 0.00, 0.000, 0.000, 0.000, 19:17:12.297
148, 0.00, 0.00, 723.27, 0.00, 0.000, 0.000, 0.000, 19:17:12.297
149, 0.00, 0.00, 1596.62, 0.00, 0.000, 0.000, 0.000, 19:17:12.297
150, 0.00, 0.00, 931.19, 0.00, 0.000, 0.000, 0.000, 19:17:12.302
151, 0.00, 0.00, 470.94, 0.00, 0.000, 0.000, 0.000, 19:17:12.312
152, 0.00, 0.00, 1377.41, 0.00, 0.000, 0.000, 0.000, 19:17:12.312
153, 0.00, 0.00, 1295.07, 0.00, 0.000, 0.000, 0.000, 19:17:12.327
154, 0.00, 0.00, 521.72, 0.00, 0.000, 0.000, 0.000, 19:17:12.327
155, 0.00, 0.00, 1097.29, 0.00, 0.000, 0.000, 0.000, 19:17:12.327
156, 0.00, 0.00, 1430.41, 0.00, 0.000, 0.000, 0.000, 19:17:12.327
157, 0.00, 0.00, 544.54, 0.00, 0.000, 0.000, 0.000, 19:17:12.342
158, 0.00, 0.00, 666.50, 0.00, 0.000, 0.000, 0.000, 19:17:12.342
159, 0.00, 0.00, 1512.95, 0.00, 0.000, 0.000, 0.000, 19:17:12.357
160, 0.00, 0.00, 998.16, 0.00, 0.000, 0.000, 0.000, 19:17:12.357
161, 0.00, 0.00, 698.94, 0.00, 0.000, 0.000, 0.000, 19:17:12.358
162, 0.00, 0.00, 768.35, 0.00, 0.000, 0.000, 0.000, 19:17:12.358
163, 0.00, 0.00, 803.12, 0.00, 0.000, 0.000, 0.000, 19:17:12.372
164, 0.00, 0.00, 711.50, 0.00, 0.000, 0.000, 0.000, 19:17:12.372
165, 0.00, 0.00, 1058.18, 0.00, 0.000, 0.000, 0.000, 19:17:12.387
166, 0.00, 0.00, 1191.00, 0.00, 0.000, 0.000, 0.000, 19:17:12.387
167, 0.00, 0.00, 277.18, 0.00, 0.000, 0.000, 0.000, 19:17:12.387
168, 0.00, 0.00, 546.18, 0.00, 0.000, 0.000, 0.000, 19:17:12.387
169, 0.00, 0.00, 1508.40, 0.00, 0.000, 0.000, 0.000, 19:17:12.402
170, 0.00, 0.00, 864.21, 0.00, 0.000, 0.000, 0.000, 19:17:12.402
171, 0.00, 0.00, 416.30, 0.00, 0.000, 0.000, 0.000, 19:17:12.417
172, 0.00, 0.00, 1323.77, 0.00, 0.000, 0.000, 0.000, 19:17:12.417
173, 0.00, 0.00, 1279.86, 0.00, 0.000, 0.000, 0.000, 19:17:12.417
174, 0.00, 0.00, 477.09, 0.00, 0.000, 0.000, 0.000, 19:17:12.417
175, 0.00, 0.00, 1137.72, 0.00, 0.000, 0.000, 0.000, 19:17:12.432
176, 0.00, 0.00, 1599.50, 0.00, 0.000, 0.000, 0.000, 19:17:12.432
177, 0.00, 0.00, 743.89, 0.00, 0.000, 0.000, 0.000, 19:17:12.447
178, 0.00, 0.00, 880.78, 0.00, 0.000, 0.000, 0.000, 19:17:12.447
179, 0.00, 0.00, 1756.04, 0.00, 0.000, 0.000, 0.000, 19:17:12.447
180, 0.00, 0.00, 1102.84, 0.00, 0.000, 0.000, 0.000, 19:17:12.447
181, 0.00, 0.00, 744.40, 0.00, 0.000, 0.000, 0.000, 19:17:12.462
182, 0.00, 0.00, 1694.17, 0.00, 0.000, 0.000, 0.000, 19:17:12.462
183, 0.00, 0.00, 1521.35, 0.00, 0.000, 0.000, 0.000, 19:17:12.477
184, 0.00, 0.00, 642.51, 0.00, 0.000, 0.000, 0.000, 19:17:12.477
185, 0.00, 0.00, 1189.75, 0.00, 0.000, 0.000, 0.000, 19:17:12.477
186, 0.00, 0.00, 1637.83, 0.00, 0.000, 0.000, 0.000, 19:17:12.477
187, 0.00, 0.00, 762.71, 0.00, 0.000, 0.000, 0.000, 19:17:12.492
188, 0.00, 0.00, 820.61, 0.00, 0.000, 0.000, 0.000, 19:17:12.492
189, 0.00, 0.00, 1651.24, 0.00, 0.000, 0.000, 0.000, 19:17:12.507
190, 0.00, 0.00, 976.99, 0.00, 0.000, 0.000, 0.000, 19:17:12.507
191, 0.00, 0.00, 522.80, 0.00, 0.000, 0.000, 0.000, 19:17:12.507
192, 0.00, 0.00, 1407.01, 0.00, 0.000, 0.000, 0.000, 19:17:12.507
193, 0.00, 0.00, 1235.32, 0.00, 0.000, 0.000, 0.000, 19:17:12.522
194, 0.00, 0.00, 379.98, 0.00, 0.000, 0.000, 0.000, 19:17:12.522
195, 0.00, 0.00, 990.30, 0.00, 0.000, 0.000, 0.000, 19:17:12.537
196, 0.00, 0.00, 1447.45, 0.00, 0.000, 0.000, 0.000, 19:17:12.538
197, 0.00, 0.00, 522.23, 0.00, 0.000, 0.000, 0.000, 19:17:12.538
198, 0.00, 0.00, 621.13, 0.00, 0.000, 0.000, 0.000, 19:17:12.538
199, 0.00, 0.00, 1492.53, 0.00, 0.000, 0.000, 0.000, 19:17:12.552
200, 0.00, 0.00, 700.13, 0.00, 0.000, 0.000, 0.000, 19:17:12.552
0, 0.00, 0.00, -832.59, 0.00, 0.000, 0.000, 0.000, 19:17:12.553
1, 0.00, 0.00, 81.87, 0.00, 0.000, 0.000, 0.000, 19:17:12.567
2, 0.00, 0.00, -78.52, 0.00, 0.000, 0.000, 0.000, 19:17:12.567
3, 0.00, 0.00, -899.57, 0.00, 0.000, 0.000, 0.000, 19:17:12.582
4, 0.00, 0.00, -388.67, 0.00, 0.000, 0.000, 0.000, 19:17:12.582
5, 0.00, 0.00, 78.05, 0.00, 0.000, 0.000, 0.000, 19:17:12.582
6, 0.00, 0.00, -853.38, 0.00, 0.000, 0.000, 0.000, 19:17:12.582
7, 0.00, 0.00, -651.44, 0.00, 0.000, 0.000, 0.000, 19:17:12.597
8, 0.00, 0.00, 235.98, 0.00, 0.000, 0.000, 0.000, 19:17:12.597
9, 0.00, 0.00, -322.88, 0.00, 0.000, 0.000, 0.000, 19:17:12.612
10, 0.00, 0.00, -781.81, 0.00, 0.000, 0.000, 0.000, 19:17:12.612
11, 0.00, 0.00, -775.07, 0.00, 0.000, 0.000, 0.000, 19:17:12.612
12, 0.00, 0.00, -880.16, 0.00, 0.000, 0.000, 0.000, 19:17:12.613
13, 0.00, 0.00, -1584.79, 0.00, 0.000, 0.000, 0.000, 19:17:12.627
14, 0.00, 0.00, -912.76, 0.00, 0.000, 0.000, 0.000, 19:17:12.627
15, 0.00, 0.00, -505.42, 0.00, 0.000, 0.000, 0.000, 19:17:12.642
16, 0.00, 0.00, -1360.87, 0.00, 0.000, 0.000, 0.000, 19:17:12.642
17, 0.00, 0.00, -1230.81, 0.00, 0.000, 0.000, 0.000, 19:17:12.643
18, 0.00, 0.00, -306.95, 0.00, 0.000, 0.000, 0.000, 19:17:12.643
19, 0.00, 0.00, -923.75, 0.00, 0.000, 0.000, 0.000, 19:17:12.657
20, 0.00, 0.00, -1278.27, 0.00, 0.000, 0.000, 0.000, 19:17:12.657
21, 0.00, 0.00, -366.05, 0.00, 0.000, 0.000, 0.000, 19:17:12.672
22, 0.00, 0.00, -396.82, 0.00, 0.000, 0.000, 0.000, 19:17:12.672
23, 0.00, 0.00, -1158.12, 0.00, 0.000, 0.000, 0.000, 19:17:12.673
24, 0.00, 0.00, -430.45, 0.00, 0.000, 0.000, 0.000, 19:17:12.673
25, 0.00, 0.00, 92.54, 0.00, 0.000, 0.000, 0.000, 19:17:12.687
26, 0.00, 0.00, -732.44, 0.00, 0.000, 0.000, 0.000, 19:17:12.687
27, 0.00, 0.00, -479.55, 0.00, 0.000, 0.000, 0.000, 19:17:12.702
28, 0.00, 0.00, 474.41, 0.00, 0.000, 0.000, 0.000, 19:17:12.702
29, 0.00, 0.00, -150.10, 0.00, 0.000, 0.000, 0.000, 19:17:12.703
30, 0.00, 0.00, -631.86, 0.00, 0.000, 0.000, 0.000, 19:17:12.703
31, 0.00, 0.00, 224.52, 0.00, 0.000, 0.000, 0.000, 19:17:12.717
32, 0.00, 0.00, -63.26, 0.00, 0.000, 0.000, 0.000, 19:17:12.717
33, 0.00, 0.00, -120.90, 0.00, 0.000, 0.000, 0.000, 19:17:12.732
34, 0.00, 0.00, 435.10, 0.00, 0.000, 0.000, 0.000, 19:17:12.732
35, 0.00, 0.00, 833.95, 0.00, 0.000, 0.000, 0.000, 19:17:12.732
36, 0.00, 0.00, -116.98, 0.00, 0.000, 0.000, 0.000, 19:17:12.732
37, 0.00, 0.00, -110.81, 0.00, 0.000, 0.000, 0.000, 19:17:12.747
38, 0.00, 0.00, 697.77, 0.00, 0.000, 0.000, 0.000, 19:17:12.747
39, 0.00, 0.00, -44.99, 0.00, 0.000, 0.000, 0.000, 19:17:12.762
40, 0.00, 0.00, -562.23, 0.00, 0.000, 0.000, 0.000, 19:17:12.762
41, 0.00, 0.00, 256.06, 0.00, 0.000, 0.000, 0.000, 19:17:12.762
42, 0.00, 0.00, 86.60, 0.00, 0.000, 0.000, 0.000, 19:17:12.762
43, 0.00, 0.00, -882.12, 0.00, 0.000, 0.000, 0.000, 19:17:12.777
44, 0.00, 0.00, -291.00, 0.00, 0.000, 0.000, 0.000, 19:17:12.777
45, 0.00, 0.00, 149.53, 0.00, 0.000, 0.000, 0.000, 19:17:12.792
46, 0.00, 0.00, -14.13, 0.00, 0.000, 0.000, 0.000, 19:17:12.792
47, 0.00, 0.00, -33.05, 0.00, 0.000, 0.000, 0.000, 19:17:12.792
48, 0.00, 0.00, 864.08, 0.00, 0.000, 0.000, 0.000, 19:17:12.792
49, 0.00, 0.00, 105.87, 0.00, 0.000, 0.000, 0.000, 19:17:12.807
50, 0.00, 0.00, -403.93, 0.00, 0.000, 0.000, 0.000, 19:17:12.807
51, 0.00, 0.00, 475.85, 0.00, 0.000, 0.000, 0.000, 19:17:12.822
52, 0.00, 0.00, 322.53, 0.00, 0.000, 0.000, 0.000, 19:17:12.822
53, 0.00, 0.00, -610.74, 0.00, 0.000, 0.000, 0.000, 19:17:12.822
54, 0.00, 0.00, 103.05, 0.00, 0.000, 0.000, 0.000, 19:17:12.822
55, 0.00, 0.00, 682.17, 0.00, 0.000, 0.000, 0.000, 19:17:12.837
56, 0.00, 0.00, -200.57, 0.00, 0.000, 0.000, 0.000, 19:17:12.837
57, 0.00, 0.00, 29.89, 0.00, 0.000, 0.000, 0.000, 19:17:12.852
58, 0.00, 0.00, 39.86, 0.00, 0.000, 0.000, 0.000, 19:17:12.853
59, 0.00, 0.00, -475.54, 0.00, 0.000, 0.000, 0.000, 19:17:12.853
60, 0.00, 0.00, -814.42, 0.00, 0.000, 0.000, 0.000, 19:17:12.853
61, 0.00, 0.00, -676.88, 0.00, 0.000, 0.000, 0.000, 19:17:12.867
62, 0.00, 0.00, -665.97, 0.00, 0.000, 0.000, 0.000, 19:17:12.867
63, 0.00, 0.00, -1464.10, 0.00, 0.000, 0.000, 0.000, 19:17:12.882
64, 0.00, 0.00, -625.81, 0.00, 0.000, 0.000, 0.000, 19:17:12.882
65, 0.00, 0.00, -25.63, 0.00, 0.000, 0.000, 0.000, 19:17:12.882
66, 0.00, 0.00, -818.75, 0.00, 0.000, 0.000, 0.000, 19:17:12.883
67, 0.00, 0.00, -560.25, 0.00, 0.000, 0.000, 0.000, 19:17:12.897
68, 0.00, 0.00, -471.01, 0.00, 0.000, 0.000, 0.000, 19:17:12.897
69, 0.00, 0.00, -943.16, 0.00, 0.000, 0.000, 0.000, 19:17:12.912
70, 0.00, 0.00, -1248.46, 0.00, 0.000, 0.000, 0.000, 19:17:12.912
71, 0.00, 0.00, -1142.23, 0.00, 0.000, 0.000, 0.000, 19:17:12.912
72, 0.00, 0.00, -1248.05, 0.00, 0.000, 0.000, 0.000, 19:17:12.912
73, 0.00, 0.00, -2178.14, 0.00, 0.000, 0.000, 0.000, 19:17:12.927
74, 0.00, 0.00, -1745.53, 0.00, 0.000, 0.000, 0.000, 19:17:12.927
75, 0.00, 0.00, -1358.02, 0.00, 0.000, 0.000, 0.000, 19:17:12.942
76, 0.00, 0.00, -1404.43, 0.00, 0.000, 0.000, 0.000, 19:17:12.942
77, 0.00, 0.00, -1256.61, 0.00, 0.000, 0.000, 0.000, 19:17:12.942
78, 0.00, 0.00, -409.37, 0.00, 0.000, 0.000, 0.000, 19:17:12.942
79, 0.00, 0.00, -925.78, 0.00, 0.000, 0.000, 0.000, 19:17:12.957
80, 0.00, 0.00, -1270.59, 0.00, 0.000, 0.000, 0.000, 19:17:12.957
81, 0.00, 0.00, -1221.36, 0.00, 0.000, 0.000, 0.000, 19:17:12.972
82, 0.00, 0.00, -1359.36, 0.00, 0.000, 0.000, 0.000, 19:17:12.972
83, 0.00, 0.00, -1617.80, 0.00, 0.000, 0.000, 0.000, 19:17:12.972
84, 0.00, 0.00, -1444.81, 0.00, 0.000, 0.000, 0.000, 19:17:12.972
85, 0.00, 0.00, -1352.52, 0.00, 0.000, 0.000, 0.000, 19:17:12.987
86, 0.00, 0.00, -1386.64, 0.00, 0.000, 0.000, 0.000, 19:17:12.987
87, 0.00, 0.00, -1246.52, 0.00, 0.000, 0.000, 0.000, 19:17:13.002
88, 0.00, 0.00, -367.64, 0.00, 0.000, 0.000, 0.000, 19:17:13.002
89, 0.00, 0.00, -1080.11, 0.00, 0.000, 0.000, 0.000, 19:17:13.002
90, 0.00, 0.00, -1619.44, 0.00, 0.000, 0.000, 0.000, 19:17:13.002
91, 0.00, 0.00, -668.94, 0.00, 0.000, 0.000, 0.000, 19:17:13.017
92, 0.00, 0.00, -805.61, 0.00, 0.000, 0.000, 0.000, 19:17:13.017
93, 0.00, 0.00, -1740.26, 0.00, 0.000, 0.000, 0.000, 19:17:13.032
94, 0.00, 0.00, -1111.66, 0.00, 0.000, 0.000, 0.000, 19:17:13.032
95, 0.00, 0.00, -584.36, 0.00, 0.000, 0.000, 0.000, 19:17:13.032
96, 0.00, 0.00, -1518.37, 0.00, 0.000, 0.000, 0.000, 19:17:13.033
97, 0.00, 0.00, -1462.73, 0.00, 0.000, 0.000, 0.000, 19:17:13.047
98, 0.00, 0.00, -579.57, 0.00, 0.000, 0.000, 0.000, 19:17:13.047
99, 0.00, 0.00, -1303.42, 0.00, 0.000, 0.000, 0.000, 19:17:13.062
100, 0.00, 0.00, -1802.61, 0.00, 0.000, 0.000, 0.000, 19:17:13.062
101, 0.00, 0.00, -893.74, 0.00, 0.000, 0.000, 0.000, 19:17:13.063
102, 0.00, 0.00, -1037.32, 0.00, 0.000, 0.000, 0.000, 19:17:13.063
103, 0.00, 0.00, -1967.74, 0.00, 0.000, 0.000, 0.000, 19:17:13.077
104, 0.00, 0.00, -1265.05, 0.00, 0.000, 0.000, 0.000, 19:17:13.077
105, 0.00, 0.00, -756.86, 0.00, 0.000, 0.000, 0.000, 19:17:13.092
106, 0.00, 0.00, -780.28, 0.00, 0.000, 0.000, 0.000, 19:17:13.092
107, 0.00, 0.00, -682.34, 0.00, 0.000, 0.000, 0.000, 19:17:13.092
108, 0.00, 0.00, 282.95, 0.00, 0.000, 0.000, 0.000, 19:17:13.093
109, 0.00, 0.00, -343.19, 0.00, 0.000, 0.000, 0.000, 19:17:13.107
110, 0.00, 0.00, -793.53, 0.00, 0.000, 0.000, 0.000, 19:17:13.107
111, 0.00, 0.00, -679.43, 0.00, 0.000, 0.000, 0.000, 19:17:13.122
112, 0.00, 0.00, -727.58, 0.00, 0.000, 0.000, 0.000, 19:17:13.122
113, 0.00, 0.00, -1636.83, 0.00, 0.000, 0.000, 0.000, 19:17:13.122
114, 0.00, 0.00, -890.04, 0.00, 0.000, 0.000, 0.000, 19:17:13.122
115, 0.00, 0.00, -311.89, 0.00, 0.000, 0.000, 0.000, 19:17:13.137
116, 0.00, 0.00, -1193.65, 0.00, 0.000, 0.000, 0.000, 19:17:13.137
117, 0.00, 0.00, -977.85, 0.00, 0.000, 0.000, 0.000, 19:17:13.152
118, 0.00, 0.00, -956.05, 0.00, 0.000, 0.000, 0.000, 19:17:13.152
119, 0.00, 0.00, -1522.68, 0.00, 0.000, 0.000, 0.000, 19:17:13.152
120, 0.00, 0.00, -2026.31, 0.00, 0.000, 0.000, 0.000, 19:17:13.152
121, 0.00, 0.00, -1992.27, 0.00, 0.000, 0.000, 0.000, 19:17:13.167
122, 0.00, 0.00, -2107.74, 0.00, 0.000, 0.000, 0.000, 19:17:13.167
123, 0.00, 0.00, -3062.79, 0.00, 0.000, 0.000, 0.000, 19:17:13.182
124, 0.00, 0.00, -2436.43, 0.00, 0.000, 0.000, 0.000, 19:17:13.182
125, 0.00, 0.00, -1984.23, 0.00, 0.000, 0.000, 0.000, 19:17:13.182
126, 0.00, 0.00, -2080.21, 0.00, 0.000, 0.000, 0.000, 19:17:13.182
127, 0.00, 0.00, -2053.53, 0.00, 0.000, 0.000, 0.000, 19:17:13.197
128, 0.00, 0.00, -1206.71, 0.00, 0.000, 0.000, 0.000, 19:17:13.197
129, 0.00, 0.00, -1913.42, 0.00, 0.000, 0.000, 0.000, 19:17:13.212
130, 0.00, 0.00, -2472.63, 0.00, 0.000, 0.000, 0.000, 19:17:13.212
131, 0.00, 0.00, -1568.10, 0.00, 0.000, 0.000, 0.000, 19:17:13.212
132, 0.00, 0.00, -1686.39, 0.00, 0.000, 0.000, 0.000, 19:17:13.213
133, 0.00, 0.00, -2631.11, 0.00, 0.000, 0.000, 0.000, 19:17:13.227
134, 0.00, 0.00, -1982.41, 0.00, 0.000, 0.000, 0.000, 19:17:13.227
135, 0.00, 0.00, -1498.61, 0.00, 0.000, 0.000, 0.000, 19:17:13.242
136, 0.00, 0.00, -1500.63, 0.00, 0.000, 0.000, 0.000, 19:17:13.242
137, 0.00, 0.00, -1439.47, 0.00, 0.000, 0.000, 0.000, 19:17:13.242
138, 0.00, 0.00, -505.68, 0.00, 0.000, 0.000, 0.000, 19:17:13.243
139, 0.00, 0.00, -1157.03, 0.00, 0.000, 0.000, 0.000, 19:17:13.257
140, 0.00, 0.00, -1702.88, 0.00, 0.000, 0.000, 0.000, 19:17:13.257
141, 0.00, 0.00, -1662.60, 0.00, 0.000, 0.000, 0.000, 19:17:13.272
142, 0.00, 0.00, -1759.82, 0.00, 0.000, 0.000, 0.000, 19:17:13.272
143, 0.00, 0.00, -2696.82, 0.00, 0.000, 0.000, 0.000, 19:17:13.272
144, 0.00, 0.00, -2066.71, 0.00, 0.000, 0.000, 0.000, 19:17:13.272
145, 0.00, 0.00, -1617.79, 0.00, 0.000, 0.000, 0.000, 19:17:13.287
146, 0.00, 0.00, -1651.85, 0.00, 0.000, 0.000, 0.000, 19:17:13.287
147, 0.00, 0.00, -1557.06, 0.00, 0.000, 0.000, 0.000, 19:17:13.302
148, 0.00, 0.00, -759.29, 0.00, 0.000, 0.000, 0.000, 19:17:13.302
149, 0.00, 0.00, -1529.41, 0.00, 0.000, 0.000, 0.000, 19:17:13.317
150, 0.00, 0.00, -2084.67, 0.00, 0.000, 0.000, 0.000, 19:17:13.317
151, 0.00, 0.00, -1106.87, 0.00, 0.000, 0.000, 0.000, 19:17:13.318
152, 0.00, 0.00, -1213.39, 0.00, 0.000, 0.000, 0.000, 19:17:13.318
153, 0.00, 0.00, -2126.63, 0.00, 0.000, 0.000, 0.000, 19:17:13.332
154, 0.00, 0.00, -1402.12, 0.00, 0.000, 0.000, 0.000, 19:17:13.332
155, 0.00, 0.00, -853.35, 0.00, 0.000, 0.000, 0.000, 19:17:13.332
156, 0.00, 0.00, -1742.03, 0.00, 0.000, 0.000, 0.000, 19:17:13.332
157, 0.00, 0.00, -1569.55, 0.00, 0.000, 0.000, 0.000, 19:17:13.347
158, 0.00, 0.00, -1484.31, 0.00, 0.000, 0.000, 0.000, 19:17:13.347
159, 0.00, 0.00, -2162.06, 0.00, 0.000, 0.000, 0.000, 19:17:13.362
160, 0.00, 0.00, -2605.69, 0.00, 0.000, 0.000, 0.000, 19:17:13.362
161, 0.00, 0.00, -2529.37, 0.00, 0.000, 0.000, 0.000, 19:17:13.362
162, 0.00, 0.00, -2564.10, 0.00, 0.000, 0.000, 0.000, 19:17:13.362
163, 0.00, 0.00, -3431.26, 0.00, 0.000, 0.000, 0.000, 19:17:13.377
164, 0.00, 0.00, -2744.47, 0.00, 0.000, 0.000, 0.000, 19:17:13.377
165, 0.00, 0.00, -2164.84, 0.00, 0.000, 0.000, 0.000, 19:17:13.392
166, 0.00, 0.00, -3132.36, 0.00, 0.000, 0.000, 0.000, 19:17:13.392
167, 0.00, 0.00, -3040.69, 0.00, 0.000, 0.000, 0.000, 19:17:13.393
168, 0.00, 0.00, -2986.58, 0.00, 0.000, 0.000, 0.000, 19:17:13.393
169, 0.00, 0.00, -3601.92, 0.00, 0.000, 0.000, 0.000, 19:17:13.407
170, 0.00, 0.00, -4076.78, 0.00, 0.000, 0.000, 0.000, 19:17:13.407
171, 0.00, 0.00, -4051.11, 0.00, 0.000, 0.000, 0.000, 19:17:13.422
172, 0.00, 0.00, -4070.30, 0.00, 0.000, 0.000, 0.000, 19:17:13.422
173, 0.00, 0.00, -4886.54, 0.00, 0.000, 0.000, 0.000, 19:17:13.422
174, 0.00, 0.00, -4159.25, 0.00, 0.000, 0.000, 0.000, 19:17:13.423
175, 0.00, 0.00, -3573.74, 0.00, 0.000, 0.000, 0.000, 19:17:13.437
176, 0.00, 0.00, -3631.63, 0.00, 0.000, 0.000, 0.000, 19:17:13.437
177, 0.00, 0.00, -3624.84, 0.00, 0.000, 0.000, 0.000, 19:17:13.452
178, 0.00, 0.00, -2807.64, 0.00, 0.000, 0.000, 0.000, 19:17:13.452
179, 0.00, 0.00, -3611.51, 0.00, 0.000, 0.000, 0.000, 19:17:13.452
180, 0.00, 0.00, -4263.93, 0.00, 0.000, 0.000, 0.000, 19:17:13.452
181, 0.00, 0.00, -3395.98, 0.00, 0.000, 0.000, 0.000, 19:17:13.467
182, 0.00, 0.00, -3556.27, 0.00, 0.000, 0.000, 0.000, 19:17:13.467
183, 0.00, 0.00, -3583.04, 0.00, 0.000, 0.000, 0.000, 19:17:13.482
184, 0.00, 0.00, -2956.74, 0.00, 0.000, 0.000, 0.000, 19:17:13.482
185, 0.00, 0.00, -2520.47, 0.00, 0.000, 0.000, 0.000, 19:17:13.482
186, 0.00, 0.00, -3466.59, 0.00, 0.000, 0.000, 0.000, 19:17:13.482
187, 0.00, 0.00, -3447.63, 0.00, 0.000, 0.000, 0.000, 19:17:13.497
188, 0.00, 0.00, -3440.09, 0.00, 0.000, 0.000, 0.000, 19:17:13.497
189, 0.00, 0.00, -4110.29, 0.00, 0.000, 0.000, 0.000, 19:17:13.512
190, 0.00, 0.00, -4666.02, 0.00, 0.000, 0.000, 0.000, 19:17:13.512
191, 0.00, 0.00, -4595.20, 0.00, 0.000, 0.000, 0.000, 19:17:13.512
192, 0.00, 0.00, -4593.38, 0.00, 0.000, 0.000, 0.000, 19:17:13.512
193, 0.00, 0.00, -5533.74, 0.00, 0.000, 0.000, 0.000, 19:17:13.527
194, 0.00, 0.00, -4865.74, 0.00, 0.000, 0.000, 0.000, 19:17:13.527
195, 0.00, 0.00, -4322.10, 0.00, 0.000, 0.000, 0.000, 19:17:13.542
196, 0.00, 0.00, -5271.50, 0.00, 0.000, 0.000, 0.000, 19:17:13.542
197, 0.00, 0.00, -5102.58, 0.00, 0.000, 0.000, 0.000, 19:17:13.542
198, 0.00, 0.00, -4153.10, 0.00, 0.000, 0.000, 0.000, 19:17:13.542
199, 0.00, 0.00, -4767.42, 0.00, 0.000, 0.000, 0.000, 19:17:13.557
200, 0.00, 0.00, -5246.63, 0.00, 0.000, 0.000, 0.000, 19:17:13.557
0, 0.00, 0.00, 787.26, 0.00, 0.000, 0.000, 0.000, 19:17:13.557
1, 0.00, 0.00, 926.37, 0.00, 0.000, 0.000, 0.000, 19:17:13.572
2, 0.00, 0.00, 104.29, 0.00, 0.000, 0.000, 0.000, 19:17:13.572
3, 0.00, 0.00, 854.18, 0.00, 0.000, 0.000, 0.000, 19:17:13.587
4, 0.00, 0.00, 1273.02, 0.00, 0.000, 0.000, 0.000, 19:17:13.587
5, 0.00, 0.00, 819.26, 0.00, 0.000, 0.000, 0.000, 19:17:13.587
6, 0.00, 0.00, 575.36, 0.00, 0.000, 0.000, 0.000, 19:17:13.587
7, 0.00, 0.00, 1440.22, 0.00, 0.000, 0.000, 0.000, 19:17:13.602
8, 0.00, 0.00, 855.36, 0.00, 0.000, 0.000, 0.000, 19:17:13.602
9, 0.00, 0.00, 367.99, 0.00, 0.000, 0.000, 0.000, 19:17:13.617
10, 0.00, 0.00, 1326.42, 0.00, 0.000, 0.000, 0.000, 19:17:13.617
11, 0.00, 0.00, 1233.63, 0.00, 0.000, 0.000, 0.000, 19:17:13.617
12, 0.00, 0.00, 290.82, 0.00, 0.000, 0.000, 0.000, 19:17:13.617
13, 0.00, 0.00, 959.29, 0.00, 0.000, 0.000, 0.000, 19:17:13.632
14, 0.00, 0.00, 1514.09, 0.00, 0.000, 0.000, 0.000, 19:17:13.632
15, 0.00, 0.00, 1501.60, 0.00, 0.000, 0.000, 0.000, 19:17:13.647
16, 0.00, 0.00, 1552.42, 0.00, 0.000, 0.000, 0.000, 19:17:13.647
17, 0.00, 0.00, 2532.78, 0.00, 0.000, 0.000, 0.000, 19:17:13.647
18, 0.00, 0.00, 1890.25, 0.00, 0.000, 0.000, 0.000, 19:17:13.647
19, 0.00, 0.00, 1310.27, 0.00, 0.000, 0.000, 0.000, 19:17:13.662
20, 0.00, 0.00, 1354.26, 0.00, 0.000, 0.000, 0.000, 19:17:13.662
21, 0.00, 0.00, 1274.47, 0.00, 0.000, 0.000, 0.000, 19:17:13.677
22, 0.00, 0.00, 326.54, 0.00, 0.000, 0.000, 0.000, 19:17:13.677
23, 0.00, 0.00, 999.33, 0.00, 0.000, 0.000, 0.000, 19:17:13.677
