%OpenBCI Raw EEG Data
%
%Sample Rate = 200.0 Hz
%First Column = SampleIndex
%Last Column = Timestamp 
%Other Columns = EEG data in microvolts followed by Accel Data (in G) interleaved with Aux Data
0, 0.00, 0.00, -419.82, 0.00, 0.000, 0.000, 0.000, 19:29:36.597
1, 0.00, 0.00, 147.28, 0.00, 0.000, 0.000, 0.000, 19:29:36.612
2, 0.00, 0.00, -22.01, 0.00, 0.000, 0.000, 0.000, 19:29:36.612
3, 0.00, 0.00, -549.34, 0.00, 0.000, 0.000, 0.000, 19:29:36.627
4, 0.00, 0.00, 20.56, 0.00, 0.000, 0.000, 0.000, 19:29:36.627
5, 0.00, 0.00, 139.54, 0.00, 0.000, 0.000, 0.000, 19:29:36.627
6, 0.00, 0.00, -457.70, 0.00, 0.000, 0.000, 0.000, 19:29:36.627
7, 0.00, 0.00, -152.49, 0.00, 0.000, 0.000, 0.000, 19:29:36.642
8, 0.00, 0.00, 313.03, 0.00, 0.000, 0.000, 0.000, 19:29:36.642
9, 0.00, 0.00, -277.47, 0.00, 0.000, 0.000, 0.000, 19:29:36.657
10, 0.00, 0.00, -418.29, 0.00, 0.000, 0.000, 0.000, 19:29:36.657
11, 0.00, 0.00, 196.65, 0.00, 0.000, 0.000, 0.000, 19:29:36.657
12, 0.00, 0.00, -43.73, 0.00, 0.000, 0.000, 0.000, 19:29:36.657
13, 0.00, 0.00, -394.54, 0.00, 0.000, 0.000, 0.000, 19:29:36.672
14, 0.00, 0.00, 31.92, 0.00, 0.000, 0.000, 0.000, 19:29:36.672
15, 0.00, 0.00, 167.34, 0.00, 0.000, 0.000, 0.000, 19:29:36.686
16, 0.00, 0.00, -447.23, 0.00, 0.000, 0.000, 0.000, 19:29:36.687
17, 0.00, 0.00, -124.13, 0.00, 0.000, 0.000, 0.000, 19:29:36.687
18, 0.00, 0.00, 273.54, 0.00, 0.000, 0.000, 0.000, 19:29:36.687
19, 0.00, 0.00, -251.14, 0.00, 0.000, 0.000, 0.000, 19:29:36.702
20, 0.00, 0.00, -323.26, 0.00, 0.000, 0.000, 0.000, 19:29:36.702
21, 0.00, 0.00, 191.51, 0.00, 0.000, 0.000, 0.000, 19:29:36.716
22, 0.00, 0.00, 10.88, 0.00, 0.000, 0.000, 0.000, 19:29:36.717
23, 0.00, 0.00, -408.02, 0.00, 0.000, 0.000, 0.000, 19:29:36.717
24, 0.00, 0.00, 94.40, 0.00, 0.000, 0.000, 0.000, 19:29:36.717
25, 0.00, 0.00, 186.10, 0.00, 0.000, 0.000, 0.000, 19:29:36.732
26, 0.00, 0.00, -380.56, 0.00, 0.000, 0.000, 0.000, 19:29:36.732
27, 0.00, 0.00, -185.73, 0.00, 0.000, 0.000, 0.000, 19:29:36.746
28, 0.00, 0.00, 307.10, 0.00, 0.000, 0.000, 0.000, 19:29:36.747
29, 0.00, 0.00, -225.00, 0.00, 0.000, 0.000, 0.000, 19:29:36.747
30, 0.00, 0.00, -352.23, 0.00, 0.000, 0.000, 0.000, 19:29:36.747
31, 0.00, 0.00, 250.10, 0.00, 0.000, 0.000, 0.000, 19:29:36.761
32, 0.00, 0.00, 41.11, 0.00, 0.000, 0.000, 0.000, 19:29:36.762
33, 0.00, 0.00, -442.41, 0.00, 0.000, 0.000, 0.000, 19:29:36.777
34, 0.00, 0.00, 83.91, 0.00, 0.000, 0.000, 0.000, 19:29:36.777
35, 0.00, 0.00, 230.93, 0.00, 0.000, 0.000, 0.000, 19:29:36.777
36, 0.00, 0.00, -360.75, 0.00, 0.000, 0.000, 0.000, 19:29:36.777
37, 0.00, 0.00, -92.22, 0.00, 0.000, 0.000, 0.000, 19:29:36.792
38, 0.00, 0.00, 307.07, 0.00, 0.000, 0.000, 0.000, 19:29:36.792
39, 0.00, 0.00, -166.24, 0.00, 0.000, 0.000, 0.000, 19:29:36.807
40, 0.00, 0.00, -325.64, 0.00, 0.000, 0.000, 0.000, 19:29:36.807
41, 0.00, 0.00, 278.79, 0.00, 0.000, 0.000, 0.000, 19:29:36.807
42, 0.00, 0.00, 31.76, 0.00, 0.000, 0.000, 0.000, 19:29:36.807
43, 0.00, 0.00, -420.75, 0.00, 0.000, 0.000, 0.000, 19:29:36.822
44, 0.00, 0.00, 164.35, 0.00, 0.000, 0.000, 0.000, 19:29:36.822
45, 0.00, 0.00, 183.94, 0.00, 0.000, 0.000, 0.000, 19:29:36.836
46, 0.00, 0.00, -325.35, 0.00, 0.000, 0.000, 0.000, 19:29:36.837
47, 0.00, 0.00, -119.53, 0.00, 0.000, 0.000, 0.000, 19:29:36.837
48, 0.00, 0.00, 270.85, 0.00, 0.000, 0.000, 0.000, 19:29:36.837
49, 0.00, 0.00, -188.82, 0.00, 0.000, 0.000, 0.000, 19:29:36.852
50, 0.00, 0.00, -339.05, 0.00, 0.000, 0.000, 0.000, 19:29:36.852
51, 0.00, 0.00, 239.36, 0.00, 0.000, 0.000, 0.000, 19:29:36.866
52, 0.00, 0.00, -92.87, 0.00, 0.000, 0.000, 0.000, 19:29:36.866
53, 0.00, 0.00, -494.94, 0.00, 0.000, 0.000, 0.000, 19:29:36.867
54, 0.00, 0.00, 33.62, 0.00, 0.000, 0.000, 0.000, 19:29:36.867
55, 0.00, 0.00, 135.38, 0.00, 0.000, 0.000, 0.000, 19:29:36.881
56, 0.00, 0.00, -427.17, 0.00, 0.000, 0.000, 0.000, 19:29:36.882
57, 0.00, 0.00, -204.53, 0.00, 0.000, 0.000, 0.000, 19:29:36.896
58, 0.00, 0.00, 193.89, 0.00, 0.000, 0.000, 0.000, 19:29:36.896
59, 0.00, 0.00, -309.38, 0.00, 0.000, 0.000, 0.000, 19:29:36.897
60, 0.00, 0.00, -436.68, 0.00, 0.000, 0.000, 0.000, 19:29:36.897
61, 0.00, 0.00, 171.74, 0.00, 0.000, 0.000, 0.000, 19:29:36.912
62, 0.00, 0.00, -4.57, 0.00, 0.000, 0.000, 0.000, 19:29:36.912
63, 0.00, 0.00, -459.38, 0.00, 0.000, 0.000, 0.000, 19:29:36.926
64, 0.00, 0.00, 19.24, 0.00, 0.000, 0.000, 0.000, 19:29:36.927
65, 0.00, 0.00, 142.56, 0.00, 0.000, 0.000, 0.000, 19:29:36.927
66, 0.00, 0.00, -362.12, 0.00, 0.000, 0.000, 0.000, 19:29:36.927
67, 0.00, 0.00, -243.26, 0.00, 0.000, 0.000, 0.000, 19:29:36.942
68, 0.00, 0.00, 246.65, 0.00, 0.000, 0.000, 0.000, 19:29:36.942
69, 0.00, 0.00, -183.64, 0.00, 0.000, 0.000, 0.000, 19:29:36.956
70, 0.00, 0.00, -389.45, 0.00, 0.000, 0.000, 0.000, 19:29:36.957
71, 0.00, 0.00, 204.08, 0.00, 0.000, 0.000, 0.000, 19:29:36.957
72, 0.00, 0.00, 1.32, 0.00, 0.000, 0.000, 0.000, 19:29:36.957
73, 0.00, 0.00, -458.89, 0.00, 0.000, 0.000, 0.000, 19:29:36.971
74, 0.00, 0.00, 5.56, 0.00, 0.000, 0.000, 0.000, 19:29:36.972
75, 0.00, 0.00, 256.91, 0.00, 0.000, 0.000, 0.000, 19:29:36.987
76, 0.00, 0.00, -431.71, 0.00, 0.000, 0.000, 0.000, 19:29:36.987
77, 0.00, 0.00, -158.93, 0.00, 0.000, 0.000, 0.000, 19:29:36.987
78, 0.00, 0.00, 240.58, 0.00, 0.000, 0.000, 0.000, 19:29:36.987
79, 0.00, 0.00, -221.60, 0.00, 0.000, 0.000, 0.000, 19:29:37.002
80, 0.00, 0.00, -335.55, 0.00, 0.000, 0.000, 0.000, 19:29:37.002
81, 0.00, 0.00, 173.59, 0.00, 0.000, 0.000, 0.000, 19:29:37.017
82, 0.00, 0.00, 32.29, 0.00, 0.000, 0.000, 0.000, 19:29:37.017
83, 0.00, 0.00, -465.06, 0.00, 0.000, 0.000, 0.000, 19:29:37.017
84, 0.00, 0.00, 29.94, 0.00, 0.000, 0.000, 0.000, 19:29:37.017
85, 0.00, 0.00, 265.72, 0.00, 0.000, 0.000, 0.000, 19:29:37.031
86, 0.00, 0.00, -376.86, 0.00, 0.000, 0.000, 0.000, 19:29:37.032
87, 0.00, 0.00, -161.17, 0.00, 0.000, 0.000, 0.000, 19:29:37.046
88, 0.00, 0.00, 270.06, 0.00, 0.000, 0.000, 0.000, 19:29:37.047
89, 0.00, 0.00, -197.90, 0.00, 0.000, 0.000, 0.000, 19:29:37.047
90, 0.00, 0.00, -346.28, 0.00, 0.000, 0.000, 0.000, 19:29:37.047
91, 0.00, 0.00, 224.28, 0.00, 0.000, 0.000, 0.000, 19:29:37.062
92, 0.00, 0.00, 24.53, 0.00, 0.000, 0.000, 0.000, 19:29:37.062
93, 0.00, 0.00, -456.24, 0.00, 0.000, 0.000, 0.000, 19:29:37.076
94, 0.00, 0.00, 60.48, 0.00, 0.000, 0.000, 0.000, 19:29:37.077
95, 0.00, 0.00, 179.08, 0.00, 0.000, 0.000, 0.000, 19:29:37.077
96, 0.00, 0.00, -366.35, 0.00, 0.000, 0.000, 0.000, 19:29:37.077
97, 0.00, 0.00, -108.19, 0.00, 0.000, 0.000, 0.000, 19:29:37.092
98, 0.00, 0.00, 179.30, 0.00, 0.000, 0.000, 0.000, 19:29:37.092
99, 0.00, 0.00, -194.95, 0.00, 0.000, 0.000, 0.000, 19:29:37.106
100, 0.00, 0.00, -356.17, 0.00, 0.000, 0.000, 0.000, 19:29:37.107
101, 0.00, 0.00, 199.16, 0.00, 0.000, 0.000, 0.000, 19:29:37.107
102, 0.00, 0.00, 10.59, 0.00, 0.000, 0.000, 0.000, 19:29:37.107
103, 0.00, 0.00, -420.90, 0.00, 0.000, 0.000, 0.000, 19:29:37.122
104, 0.00, 0.00, -23.60, 0.00, 0.000, 0.000, 0.000, 19:29:37.122
105, 0.00, 0.00, 282.02, 0.00, 0.000, 0.000, 0.000, 19:29:37.136
106, 0.00, 0.00, -421.12, 0.00, 0.000, 0.000, 0.000, 19:29:37.137
107, 0.00, 0.00, -193.36, 0.00, 0.000, 0.000, 0.000, 19:29:37.137
108, 0.00, 0.00, 242.57, 0.00, 0.000, 0.000, 0.000, 19:29:37.137
109, 0.00, 0.00, -220.43, 0.00, 0.000, 0.000, 0.000, 19:29:37.151
110, 0.00, 0.00, -322.18, 0.00, 0.000, 0.000, 0.000, 19:29:37.152
111, 0.00, 0.00, 186.73, 0.00, 0.000, 0.000, 0.000, 19:29:37.167
112, 0.00, 0.00, 46.87, 0.00, 0.000, 0.000, 0.000, 19:29:37.167
113, 0.00, 0.00, -451.35, 0.00, 0.000, 0.000, 0.000, 19:29:37.167
114, 0.00, 0.00, 2.07, 0.00, 0.000, 0.000, 0.000, 19:29:37.168
115, 0.00, 0.00, 272.39, 0.00, 0.000, 0.000, 0.000, 19:29:37.182
116, 0.00, 0.00, -412.61, 0.00, 0.000, 0.000, 0.000, 19:29:37.182
117, 0.00, 0.00, -204.97, 0.00, 0.000, 0.000, 0.000, 19:29:37.197
118, 0.00, 0.00, 249.98, 0.00, 0.000, 0.000, 0.000, 19:29:37.197
119, 0.00, 0.00, -166.24, 0.00, 0.000, 0.000, 0.000, 19:29:37.198
120, 0.00, 0.00, -381.40, 0.00, 0.000, 0.000, 0.000, 19:29:37.198
121, 0.00, 0.00, 234.51, 0.00, 0.000, 0.000, 0.000, 19:29:37.212
122, 0.00, 0.00, 35.80, 0.00, 0.000, 0.000, 0.000, 19:29:37.212
123, 0.00, 0.00, -470.75, 0.00, 0.000, 0.000, 0.000, 19:29:37.226
124, 0.00, 0.00, 59.97, 0.00, 0.000, 0.000, 0.000, 19:29:37.227
125, 0.00, 0.00, 145.69, 0.00, 0.000, 0.000, 0.000, 19:29:37.227
126, 0.00, 0.00, -394.49, 0.00, 0.000, 0.000, 0.000, 19:29:37.227
127, 0.00, 0.00, -169.96, 0.00, 0.000, 0.000, 0.000, 19:29:37.242
128, 0.00, 0.00, 289.56, 0.00, 0.000, 0.000, 0.000, 19:29:37.250
129, 0.00, 0.00, -225.06, 0.00, 0.000, 0.000, 0.000, 19:29:37.256
130, 0.00, 0.00, -366.73, 0.00, 0.000, 0.000, 0.000, 19:29:37.257
131, 0.00, 0.00, 215.78, 0.00, 0.000, 0.000, 0.000, 19:29:37.257
132, 0.00, 0.00, 56.52, 0.00, 0.000, 0.000, 0.000, 19:29:37.257
133, 0.00, 0.00, -381.21, 0.00, 0.000, 0.000, 0.000, 19:29:37.272
134, 0.00, 0.00, 48.56, 0.00, 0.000, 0.000, 0.000, 19:29:37.272
135, 0.00, 0.00, 195.76, 0.00, 0.000, 0.000, 0.000, 19:29:37.286
136, 0.00, 0.00, -393.59, 0.00, 0.000, 0.000, 0.000, 19:29:37.287
137, 0.00, 0.00, -178.27, 0.00, 0.000, 0.000, 0.000, 19:29:37.287
138, 0.00, 0.00, 262.19, 0.00, 0.000, 0.000, 0.000, 19:29:37.287
139, 0.00, 0.00, -150.50, 0.00, 0.000, 0.000, 0.000, 19:29:37.302
140, 0.00, 0.00, -360.29, 0.00, 0.000, 0.000, 0.000, 19:29:37.302
141, 0.00, 0.00, 288.14, 0.00, 0.000, 0.000, 0.000, 19:29:37.316
142, 0.00, 0.00, 79.02, 0.00, 0.000, 0.000, 0.000, 19:29:37.317
143, 0.00, 0.00, -479.53, 0.00, 0.000, 0.000, 0.000, 19:29:37.317
144, 0.00, 0.00, 63.30, 0.00, 0.000, 0.000, 0.000, 19:29:37.317
145, 0.00, 0.00, 193.17, 0.00, 0.000, 0.000, 0.000, 19:29:37.331
146, 0.00, 0.00, -375.49, 0.00, 0.000, 0.000, 0.000, 19:29:37.331
147, 0.00, 0.00, -280.32, 0.00, 0.000, 0.000, 0.000, 19:29:37.347
148, 0.00, 0.00, 209.82, 0.00, 0.000, 0.000, 0.000, 19:29:37.347
149, 0.00, 0.00, -141.44, 0.00, 0.000, 0.000, 0.000, 19:29:37.347
150, 0.00, 0.00, -342.57, 0.00, 0.000, 0.000, 0.000, 19:29:37.347
151, 0.00, 0.00, 72.84, 0.00, 0.000, 0.000, 0.000, 19:29:37.361
152, 0.00, 0.00, 3.51, 0.00, 0.000, 0.000, 0.000, 19:29:37.362
153, 0.00, 0.00, -388.11, 0.00, 0.000, 0.000, 0.000, 19:29:37.377
154, 0.00, 0.00, 29.83, 0.00, 0.000, 0.000, 0.000, 19:29:37.377
155, 0.00, 0.00, 194.91, 0.00, 0.000, 0.000, 0.000, 19:29:37.377
156, 0.00, 0.00, -384.53, 0.00, 0.000, 0.000, 0.000, 19:29:37.378
157, 0.00, 0.00, -228.39, 0.00, 0.000, 0.000, 0.000, 19:29:37.391
158, 0.00, 0.00, 205.11, 0.00, 0.000, 0.000, 0.000, 19:29:37.392
159, 0.00, 0.00, -179.74, 0.00, 0.000, 0.000, 0.000, 19:29:37.407
160, 0.00, 0.00, -352.36, 0.00, 0.000, 0.000, 0.000, 19:29:37.407
161, 0.00, 0.00, 182.94, 0.00, 0.000, 0.000, 0.000, 19:29:37.407
162, 0.00, 0.00, 24.02, 0.00, 0.000, 0.000, 0.000, 19:29:37.407
163, 0.00, 0.00, -432.45, 0.00, 0.000, 0.000, 0.000, 19:29:37.421
164, 0.00, 0.00, 14.19, 0.00, 0.000, 0.000, 0.000, 19:29:37.422
165, 0.00, 0.00, 257.37, 0.00, 0.000, 0.000, 0.000, 19:29:37.437
166, 0.00, 0.00, -304.69, 0.00, 0.000, 0.000, 0.000, 19:29:37.437
167, 0.00, 0.00, -1.76, 0.00, 0.000, 0.000, 0.000, 19:29:37.437
168, 0.00, 0.00, 481.14, 0.00, 0.000, 0.000, 0.000, 19:29:37.437
169, 0.00, 0.00, 209.26, 0.00, 0.000, 0.000, 0.000, 19:29:37.451
170, 0.00, 0.00, -170.43, 0.00, 0.000, 0.000, 0.000, 19:29:37.452
171, 0.00, 0.00, 377.09, 0.00, 0.000, 0.000, 0.000, 19:29:37.466
172, 0.00, 0.00, 108.34, 0.00, 0.000, 0.000, 0.000, 19:29:37.467
173, 0.00, 0.00, -542.74, 0.00, 0.000, 0.000, 0.000, 19:29:37.467
174, 0.00, 0.00, -269.97, 0.00, 0.000, 0.000, 0.000, 19:29:37.467
175, 0.00, 0.00, -4.69, 0.00, 0.000, 0.000, 0.000, 19:29:37.482
176, 0.00, 0.00, -416.28, 0.00, 0.000, 0.000, 0.000, 19:29:37.482
177, 0.00, 0.00, -270.35, 0.00, 0.000, 0.000, 0.000, 19:29:37.497
178, 0.00, 0.00, 166.33, 0.00, 0.000, 0.000, 0.000, 19:29:37.497
179, 0.00, 0.00, -217.47, 0.00, 0.000, 0.000, 0.000, 19:29:37.497
180, 0.00, 0.00, -469.04, 0.00, 0.000, 0.000, 0.000, 19:29:37.497
181, 0.00, 0.00, 152.32, 0.00, 0.000, 0.000, 0.000, 19:29:37.512
182, 0.00, 0.00, -37.54, 0.00, 0.000, 0.000, 0.000, 19:29:37.512
183, 0.00, 0.00, -466.69, 0.00, 0.000, 0.000, 0.000, 19:29:37.526
184, 0.00, 0.00, -5.04, 0.00, 0.000, 0.000, 0.000, 19:29:37.527
185, 0.00, 0.00, 196.01, 0.00, 0.000, 0.000, 0.000, 19:29:37.527
186, 0.00, 0.00, -362.39, 0.00, 0.000, 0.000, 0.000, 19:29:37.527
187, 0.00, 0.00, -270.14, 0.00, 0.000, 0.000, 0.000, 19:29:37.541
188, 0.00, 0.00, 286.31, 0.00, 0.000, 0.000, 0.000, 19:29:37.542
189, 0.00, 0.00, -200.75, 0.00, 0.000, 0.000, 0.000, 19:29:37.556
190, 0.00, 0.00, -367.56, 0.00, 0.000, 0.000, 0.000, 19:29:37.557
191, 0.00, 0.00, 208.26, 0.00, 0.000, 0.000, 0.000, 19:29:37.557
192, 0.00, 0.00, 17.26, 0.00, 0.000, 0.000, 0.000, 19:29:37.557
193, 0.00, 0.00, -463.03, 0.00, 0.000, 0.000, 0.000, 19:29:37.572
194, 0.00, 0.00, 9.70, 0.00, 0.000, 0.000, 0.000, 19:29:37.572
195, 0.00, 0.00, 238.83, 0.00, 0.000, 0.000, 0.000, 19:29:37.587
196, 0.00, 0.00, -389.76, 0.00, 0.000, 0.000, 0.000, 19:29:37.587
197, 0.00, 0.00, -203.15, 0.00, 0.000, 0.000, 0.000, 19:29:37.588
198, 0.00, 0.00, 263.05, 0.00, 0.000, 0.000, 0.000, 19:29:37.588
199, 0.00, 0.00, -193.76, 0.00, 0.000, 0.000, 0.000, 19:29:37.602
200, 0.00, 0.00, -350.25, 0.00, 0.000, 0.000, 0.000, 19:29:37.602
0, 0.00, 0.00, 209.19, 0.00, 0.000, 0.000, 0.000, 19:29:37.602
1, 0.00, 0.00, 14.50, 0.00, 0.000, 0.000, 0.000, 19:29:37.617
2, 0.00, 0.00, -396.65, 0.00, 0.000, 0.000, 0.000, 19:29:37.617
3, 0.00, 0.00, 44.92, 0.00, 0.000, 0.000, 0.000, 19:29:37.632
4, 0.00, 0.00, 205.59, 0.00, 0.000, 0.000, 0.000, 19:29:37.632
5, 0.00, 0.00, -313.62, 0.00, 0.000, 0.000, 0.000, 19:29:37.632
6, 0.00, 0.00, -204.78, 0.00, 0.000, 0.000, 0.000, 19:29:37.633
7, 0.00, 0.00, 307.62, 0.00, 0.000, 0.000, 0.000, 19:29:37.646
8, 0.00, 0.00, -160.16, 0.00, 0.000, 0.000, 0.000, 19:29:37.647
9, 0.00, 0.00, -328.23, 0.00, 0.000, 0.000, 0.000, 19:29:37.662
10, 0.00, 0.00, 242.72, 0.00, 0.000, 0.000, 0.000, 19:29:37.662
11, 0.00, 0.00, 62.07, 0.00, 0.000, 0.000, 0.000, 19:29:37.662
12, 0.00, 0.00, -367.39, 0.00, 0.000, 0.000, 0.000, 19:29:37.662
13, 0.00, 0.00, 80.50, 0.00, 0.000, 0.000, 0.000, 19:29:37.676
14, 0.00, 0.00, 227.03, 0.00, 0.000, 0.000, 0.000, 19:29:37.677
15, 0.00, 0.00, -316.16, 0.00, 0.000, 0.000, 0.000, 19:29:37.692
16, 0.00, 0.00, -161.80, 0.00, 0.000, 0.000, 0.000, 19:29:37.692
17, 0.00, 0.00, 345.88, 0.00, 0.000, 0.000, 0.000, 19:29:37.692
18, 0.00, 0.00, -84.66, 0.00, 0.000, 0.000, 0.000, 19:29:37.692
19, 0.00, 0.00, -345.77, 0.00, 0.000, 0.000, 0.000, 19:29:37.707
20, 0.00, 0.00, 179.06, 0.00, 0.000, 0.000, 0.000, 19:29:37.707
21, 0.00, 0.00, 110.47, 0.00, 0.000, 0.000, 0.000, 19:29:37.722
22, 0.00, 0.00, -334.85, 0.00, 0.000, 0.000, 0.000, 19:29:37.722
23, 0.00, 0.00, -81.14, 0.00, 0.000, 0.000, 0.000, 19:29:37.723
24, 0.00, 0.00, 251.99, 0.00, 0.000, 0.000, 0.000, 19:29:37.723
25, 0.00, 0.00, -328.86, 0.00, 0.000, 0.000, 0.000, 19:29:37.736
26, 0.00, 0.00, -201.66, 0.00, 0.000, 0.000, 0.000, 19:29:37.737
27, 0.00, 0.00, 251.45, 0.00, 0.000, 0.000, 0.000, 19:29:37.751
28, 0.00, 0.00, -198.71, 0.00, 0.000, 0.000, 0.000, 19:29:37.752
29, 0.00, 0.00, -501.03, 0.00, 0.000, 0.000, 0.000, 19:29:37.752
30, 0.00, 0.00, 144.48, 0.00, 0.000, 0.000, 0.000, 19:29:37.752
31, 0.00, 0.00, 42.30, 0.00, 0.000, 0.000, 0.000, 19:29:37.767
32, 0.00, 0.00, -476.93, 0.00, 0.000, 0.000, 0.000, 19:29:37.767
33, 0.00, 0.00, 8.29, 0.00, 0.000, 0.000, 0.000, 19:29:37.782
34, 0.00, 0.00, 155.95, 0.00, 0.000, 0.000, 0.000, 19:29:37.782
35, 0.00, 0.00, -472.18, 0.00, 0.000, 0.000, 0.000, 19:29:37.782
36, 0.00, 0.00, -162.10, 0.00, 0.000, 0.000, 0.000, 19:29:37.782
37, 0.00, 0.00, 254.65, 0.00, 0.000, 0.000, 0.000, 19:29:37.797
38, 0.00, 0.00, -167.88, 0.00, 0.000, 0.000, 0.000, 19:29:37.797
39, 0.00, 0.00, -384.71, 0.00, 0.000, 0.000, 0.000, 19:29:37.811
40, 0.00, 0.00, 142.40, 0.00, 0.000, 0.000, 0.000, 19:29:37.812
41, 0.00, 0.00, 53.00, 0.00, 0.000, 0.000, 0.000, 19:29:37.812
42, 0.00, 0.00, -407.05, 0.00, 0.000, 0.000, 0.000, 19:29:37.812
43, 0.00, 0.00, -7.82, 0.00, 0.000, 0.000, 0.000, 19:29:37.827
44, 0.00, 0.00, 251.59, 0.00, 0.000, 0.000, 0.000, 19:29:37.827
45, 0.00, 0.00, -342.00, 0.00, 0.000, 0.000, 0.000, 19:29:37.842
46, 0.00, 0.00, -168.59, 0.00, 0.000, 0.000, 0.000, 19:29:37.842
47, 0.00, 0.00, 361.16, 0.00, 0.000, 0.000, 0.000, 19:29:37.843
48, 0.00, 0.00, -97.28, 0.00, 0.000, 0.000, 0.000, 19:29:37.843
49, 0.00, 0.00, -271.78, 0.00, 0.000, 0.000, 0.000, 19:29:37.857
50, 0.00, 0.00, 259.19, 0.00, 0.000, 0.000, 0.000, 19:29:37.857
51, 0.00, 0.00, 141.24, 0.00, 0.000, 0.000, 0.000, 19:29:37.872
52, 0.00, 0.00, -376.34, 0.00, 0.000, 0.000, 0.000, 19:29:37.872
53, 0.00, 0.00, 65.85, 0.00, 0.000, 0.000, 0.000, 19:29:37.872
54, 0.00, 0.00, 262.22, 0.00, 0.000, 0.000, 0.000, 19:29:37.872
55, 0.00, 0.00, -323.03, 0.00, 0.000, 0.000, 0.000, 19:29:37.887
56, 0.00, 0.00, -207.70, 0.00, 0.000, 0.000, 0.000, 19:29:37.887
57, 0.00, 0.00, 346.69, 0.00, 0.000, 0.000, 0.000, 19:29:37.902
58, 0.00, 0.00, -150.10, 0.00, 0.000, 0.000, 0.000, 19:29:37.902
59, 0.00, 0.00, -426.24, 0.00, 0.000, 0.000, 0.000, 19:29:37.902
60, 0.00, 0.00, 188.03, 0.00, 0.000, 0.000, 0.000, 19:29:37.902
61, 0.00, 0.00, 43.09, 0.00, 0.000, 0.000, 0.000, 19:29:37.916
62, 0.00, 0.00, -415.93, 0.00, 0.000, 0.000, 0.000, 19:29:37.917
63, 0.00, 0.00, -113.15, 0.00, 0.000, 0.000, 0.000, 19:29:37.932
64, 0.00, 0.00, 209.77, 0.00, 0.000, 0.000, 0.000, 19:29:37.932
65, 0.00, 0.00, -350.94, 0.00, 0.000, 0.000, 0.000, 19:29:37.932
66, 0.00, 0.00, -302.64, 0.00, 0.000, 0.000, 0.000, 19:29:37.932
67, 0.00, 0.00, 282.85, 0.00, 0.000, 0.000, 0.000, 19:29:37.947
68, 0.00, 0.00, -224.14, 0.00, 0.000, 0.000, 0.000, 19:29:37.947
69, 0.00, 0.00, -403.83, 0.00, 0.000, 0.000, 0.000, 19:29:37.961
70, 0.00, 0.00, 142.18, 0.00, 0.000, 0.000, 0.000, 19:29:37.962
71, 0.00, 0.00, 5.02, 0.00, 0.000, 0.000, 0.000, 19:29:37.962
72, 0.00, 0.00, -488.33, 0.00, 0.000, 0.000, 0.000, 19:29:37.962
73, 0.00, 0.00, -27.46, 0.00, 0.000, 0.000, 0.000, 19:29:37.976
74, 0.00, 0.00, 201.66, 0.00, 0.000, 0.000, 0.000, 19:29:37.977
75, 0.00, 0.00, -379.02, 0.00, 0.000, 0.000, 0.000, 19:29:37.991
76, 0.00, 0.00, -232.29, 0.00, 0.000, 0.000, 0.000, 19:29:37.992
77, 0.00, 0.00, 159.10, 0.00, 0.000, 0.000, 0.000, 19:29:37.992
78, 0.00, 0.00, -216.01, 0.00, 0.000, 0.000, 0.000, 19:29:37.992
79, 0.00, 0.00, -426.01, 0.00, 0.000, 0.000, 0.000, 19:29:38.007
80, 0.00, 0.00, 78.88, 0.00, 0.000, 0.000, 0.000, 19:29:38.007
81, 0.00, 0.00, 54.00, 0.00, 0.000, 0.000, 0.000, 19:29:38.021
82, 0.00, 0.00, -454.82, 0.00, 0.000, 0.000, 0.000, 19:29:38.022
83, 0.00, 0.00, -111.97, 0.00, 0.000, 0.000, 0.000, 19:29:38.022
84, 0.00, 0.00, 219.40, 0.00, 0.000, 0.000, 0.000, 19:29:38.022
85, 0.00, 0.00, -355.71, 0.00, 0.000, 0.000, 0.000, 19:29:38.037
86, 0.00, 0.00, -286.14, 0.00, 0.000, 0.000, 0.000, 19:29:38.037
87, 0.00, 0.00, 258.41, 0.00, 0.000, 0.000, 0.000, 19:29:38.051
88, 0.00, 0.00, -223.21, 0.00, 0.000, 0.000, 0.000, 19:29:38.052
89, 0.00, 0.00, -437.69, 0.00, 0.000, 0.000, 0.000, 19:29:38.052
90, 0.00, 0.00, 142.68, 0.00, 0.000, 0.000, 0.000, 19:29:38.052
91, 0.00, 0.00, 41.82, 0.00, 0.000, 0.000, 0.000, 19:29:38.067
92, 0.00, 0.00, -413.38, 0.00, 0.000, 0.000, 0.000, 19:29:38.067
93, 0.00, 0.00, -71.34, 0.00, 0.000, 0.000, 0.000, 19:29:38.082
94, 0.00, 0.00, 189.13, 0.00, 0.000, 0.000, 0.000, 19:29:38.082
95, 0.00, 0.00, -312.56, 0.00, 0.000, 0.000, 0.000, 19:29:38.083
96, 0.00, 0.00, -272.88, 0.00, 0.000, 0.000, 0.000, 19:29:38.083
97, 0.00, 0.00, 261.18, 0.00, 0.000, 0.000, 0.000, 19:29:38.096
98, 0.00, 0.00, -191.19, 0.00, 0.000, 0.000, 0.000, 19:29:38.097
99, 0.00, 0.00, -471.40, 0.00, 0.000, 0.000, 0.000, 19:29:38.112
100, 0.00, 0.00, 159.08, 0.00, 0.000, 0.000, 0.000, 19:29:38.112
101, 0.00, 0.00, 71.03, 0.00, 0.000, 0.000, 0.000, 19:29:38.112
102, 0.00, 0.00, -492.88, 0.00, 0.000, 0.000, 0.000, 19:29:38.112
103, 0.00, 0.00, 26.65, 0.00, 0.000, 0.000, 0.000, 19:29:38.126
104, 0.00, 0.00, 172.04, 0.00, 0.000, 0.000, 0.000, 19:29:38.127
105, 0.00, 0.00, -306.94, 0.00, 0.000, 0.000, 0.000, 19:29:38.141
106, 0.00, 0.00, -289.90, 0.00, 0.000, 0.000, 0.000, 19:29:38.142
107, 0.00, 0.00, 195.67, 0.00, 0.000, 0.000, 0.000, 19:29:38.142
108, 0.00, 0.00, -127.26, 0.00, 0.000, 0.000, 0.000, 19:29:38.142
109, 0.00, 0.00, -421.07, 0.00, 0.000, 0.000, 0.000, 19:29:38.157
110, 0.00, 0.00, 142.16, 0.00, 0.000, 0.000, 0.000, 19:29:38.157
111, 0.00, 0.00, 85.52, 0.00, 0.000, 0.000, 0.000, 19:29:38.171
112, 0.00, 0.00, -444.83, 0.00, 0.000, 0.000, 0.000, 19:29:38.172
113, 0.00, 0.00, 75.50, 0.00, 0.000, 0.000, 0.000, 19:29:38.172
114, 0.00, 0.00, 347.16, 0.00, 0.000, 0.000, 0.000, 19:29:38.172
115, 0.00, 0.00, -487.47, 0.00, 0.000, 0.000, 0.000, 19:29:38.187
116, 0.00, 0.00, -304.71, 0.00, 0.000, 0.000, 0.000, 19:29:38.187
117, 0.00, 0.00, 406.65, 0.00, 0.000, 0.000, 0.000, 19:29:38.201
118, 0.00, 0.00, -154.30, 0.00, 0.000, 0.000, 0.000, 19:29:38.202
119, 0.00, 0.00, -525.45, 0.00, 0.000, 0.000, 0.000, 19:29:38.202
120, 0.00, 0.00, 284.79, 0.00, 0.000, 0.000, 0.000, 19:29:38.202
121, 0.00, 0.00, 149.18, 0.00, 0.000, 0.000, 0.000, 19:29:38.216
122, 0.00, 0.00, -592.93, 0.00, 0.000, 0.000, 0.000, 19:29:38.216
123, 0.00, 0.00, -2.99, 0.00, 0.000, 0.000, 0.000, 19:29:38.231
124, 0.00, 0.00, 445.28, 0.00, 0.000, 0.000, 0.000, 19:29:38.232
125, 0.00, 0.00, -434.16, 0.00, 0.000, 0.000, 0.000, 19:29:38.232
126, 0.00, 0.00, -293.69, 0.00, 0.000, 0.000, 0.000, 19:29:38.232
127, 0.00, 0.00, 402.09, 0.00, 0.000, 0.000, 0.000, 19:29:38.246
128, 0.00, 0.00, -113.10, 0.00, 0.000, 0.000, 0.000, 19:29:38.247
129, 0.00, 0.00, -549.04, 0.00, 0.000, 0.000, 0.000, 19:29:38.262
130, 0.00, 0.00, 320.56, 0.00, 0.000, 0.000, 0.000, 19:29:38.262
131, 0.00, 0.00, 78.92, 0.00, 0.000, 0.000, 0.000, 19:29:38.262
132, 0.00, 0.00, -659.89, 0.00, 0.000, 0.000, 0.000, 19:29:38.262
133, 0.00, 0.00, 9.08, 0.00, 0.000, 0.000, 0.000, 19:29:38.276
134, 0.00, 0.00, 389.05, 0.00, 0.000, 0.000, 0.000, 19:29:38.277
135, 0.00, 0.00, -537.18, 0.00, 0.000, 0.000, 0.000, 19:29:38.291
136, 0.00, 0.00, -303.22, 0.00, 0.000, 0.000, 0.000, 19:29:38.292
137, 0.00, 0.00, 453.87, 0.00, 0.000, 0.000, 0.000, 19:29:38.292
138, 0.00, 0.00, -200.64, 0.00, 0.000, 0.000, 0.000, 19:29:38.292
139, 0.00, 0.00, -638.54, 0.00, 0.000, 0.000, 0.000, 19:29:38.306
140, 0.00, 0.00, 322.09, 0.00, 0.000, 0.000, 0.000, 19:29:38.307
141, 0.00, 0.00, 117.50, 0.00, 0.000, 0.000, 0.000, 19:29:38.321
142, 0.00, 0.00, -649.52, 0.00, 0.000, 0.000, 0.000, 19:29:38.322
143, 0.00, 0.00, -12.63, 0.00, 0.000, 0.000, 0.000, 19:29:38.322
144, 0.00, 0.00, 397.55, 0.00, 0.000, 0.000, 0.000, 19:29:38.322
145, 0.00, 0.00, -433.92, 0.00, 0.000, 0.000, 0.000, 19:29:38.337
146, 0.00, 0.00, -340.03, 0.00, 0.000, 0.000, 0.000, 19:29:38.337
147, 0.00, 0.00, 475.19, 0.00, 0.000, 0.000, 0.000, 19:29:38.351
148, 0.00, 0.00, -123.71, 0.00, 0.000, 0.000, 0.000, 19:29:38.352
149, 0.00, 0.00, -534.11, 0.00, 0.000, 0.000, 0.000, 19:29:38.352
150, 0.00, 0.00, 324.04, 0.00, 0.000, 0.000, 0.000, 19:29:38.352
151, 0.00, 0.00, 253.18, 0.00, 0.000, 0.000, 0.000, 19:29:38.367
152, 0.00, 0.00, -484.96, 0.00, 0.000, 0.000, 0.000, 19:29:38.367
153, 0.00, 0.00, 336.14, 0.00, 0.000, 0.000, 0.000, 19:29:38.381
154, 0.00, 0.00, 672.73, 0.00, 0.000, 0.000, 0.000, 19:29:38.382
155, 0.00, 0.00, -222.19, 0.00, 0.000, 0.000, 0.000, 19:29:38.382
156, 0.00, 0.00, -161.73, 0.00, 0.000, 0.000, 0.000, 19:29:38.382
157, 0.00, 0.00, 559.96, 0.00, 0.000, 0.000, 0.000, 19:29:38.396
158, 0.00, 0.00, -379.51, 0.00, 0.000, 0.000, 0.000, 19:29:38.397
159, 0.00, 0.00, -851.16, 0.00, 0.000, 0.000, 0.000, 19:29:38.412
160, 0.00, 0.00, -818.51, 0.00, 0.000, 0.000, 0.000, 19:29:38.412
161, 0.00, 0.00, -964.56, 0.00, 0.000, 0.000, 0.000, 19:29:38.412
162, 0.00, 0.00, -1598.38, 0.00, 0.000, 0.000, 0.000, 19:29:38.418
163, 0.00, 0.00, -1033.18, 0.00, 0.000, 0.000, 0.000, 19:29:38.426
164, 0.00, 0.00, -595.46, 0.00, 0.000, 0.000, 0.000, 19:29:38.427
165, 0.00, 0.00, -1492.84, 0.00, 0.000, 0.000, 0.000, 19:29:38.442
166, 0.00, 0.00, -1373.11, 0.00, 0.000, 0.000, 0.000, 19:29:38.442
167, 0.00, 0.00, -541.21, 0.00, 0.000, 0.000, 0.000, 19:29:38.442
168, 0.00, 0.00, -1175.93, 0.00, 0.000, 0.000, 0.000, 19:29:38.442
169, 0.00, 0.00, -1590.40, 0.00, 0.000, 0.000, 0.000, 19:29:38.457
170, 0.00, 0.00, -678.49, 0.00, 0.000, 0.000, 0.000, 19:29:38.457
171, 0.00, 0.00, -810.90, 0.00, 0.000, 0.000, 0.000, 19:29:38.471
172, 0.00, 0.00, -1675.77, 0.00, 0.000, 0.000, 0.000, 19:29:38.472
173, 0.00, 0.00, -958.61, 0.00, 0.000, 0.000, 0.000, 19:29:38.472
174, 0.00, 0.00, -586.88, 0.00, 0.000, 0.000, 0.000, 19:29:38.472
175, 0.00, 0.00, -1429.21, 0.00, 0.000, 0.000, 0.000, 19:29:38.487
176, 0.00, 0.00, -1345.17, 0.00, 0.000, 0.000, 0.000, 19:29:38.487
177, 0.00, 0.00, -520.08, 0.00, 0.000, 0.000, 0.000, 19:29:38.501
178, 0.00, 0.00, -1114.25, 0.00, 0.000, 0.000, 0.000, 19:29:38.501
179, 0.00, 0.00, -1512.44, 0.00, 0.000, 0.000, 0.000, 19:29:38.502
180, 0.00, 0.00, -725.95, 0.00, 0.000, 0.000, 0.000, 19:29:38.502
181, 0.00, 0.00, -828.03, 0.00, 0.000, 0.000, 0.000, 19:29:38.517
182, 0.00, 0.00, -1583.15, 0.00, 0.000, 0.000, 0.000, 19:29:38.517
183, 0.00, 0.00, -994.46, 0.00, 0.000, 0.000, 0.000, 19:29:38.531
184, 0.00, 0.00, -563.93, 0.00, 0.000, 0.000, 0.000, 19:29:38.532
185, 0.00, 0.00, -1442.22, 0.00, 0.000, 0.000, 0.000, 19:29:38.532
186, 0.00, 0.00, -1361.89, 0.00, 0.000, 0.000, 0.000, 19:29:38.532
187, 0.00, 0.00, -528.26, 0.00, 0.000, 0.000, 0.000, 19:29:38.547
188, 0.00, 0.00, -1048.60, 0.00, 0.000, 0.000, 0.000, 19:29:38.547
189, 0.00, 0.00, -1552.67, 0.00, 0.000, 0.000, 0.000, 19:29:38.562
190, 0.00, 0.00, -786.93, 0.00, 0.000, 0.000, 0.000, 19:29:38.562
191, 0.00, 0.00, -703.09, 0.00, 0.000, 0.000, 0.000, 19:29:38.562
192, 0.00, 0.00, -1570.73, 0.00, 0.000, 0.000, 0.000, 19:29:38.562
193, 0.00, 0.00, -1017.21, 0.00, 0.000, 0.000, 0.000, 19:29:38.576
194, 0.00, 0.00, -504.28, 0.00, 0.000, 0.000, 0.000, 19:29:38.577
195, 0.00, 0.00, -1372.12, 0.00, 0.000, 0.000, 0.000, 19:29:38.592
196, 0.00, 0.00, -1291.80, 0.00, 0.000, 0.000, 0.000, 19:29:38.592
197, 0.00, 0.00, -468.30, 0.00, 0.000, 0.000, 0.000, 19:29:38.592
198, 0.00, 0.00, -1119.25, 0.00, 0.000, 0.000, 0.000, 19:29:38.592
199, 0.00, 0.00, -1503.36, 0.00, 0.000, 0.000, 0.000, 19:29:38.606
200, 0.00, 0.00, -646.05, 0.00, 0.000, 0.000, 0.000, 19:29:38.607
0, 0.00, 0.00, 238.67, 0.00, 0.000, 0.000, 0.000, 19:29:38.607
1, 0.00, 0.00, -549.28, 0.00, 0.000, 0.000, 0.000, 19:29:38.622
2, 0.00, 0.00, 55.09, 0.00, 0.000, 0.000, 0.000, 19:29:38.622
3, 0.00, 0.00, 392.56, 0.00, 0.000, 0.000, 0.000, 19:29:38.636
4, 0.00, 0.00, -395.42, 0.00, 0.000, 0.000, 0.000, 19:29:38.637
5, 0.00, 0.00, -320.32, 0.00, 0.000, 0.000, 0.000, 19:29:38.637
6, 0.00, 0.00, 508.24, 0.00, 0.000, 0.000, 0.000, 19:29:38.637
7, 0.00, 0.00, -88.93, 0.00, 0.000, 0.000, 0.000, 19:29:38.652
8, 0.00, 0.00, -607.09, 0.00, 0.000, 0.000, 0.000, 19:29:38.652
9, 0.00, 0.00, 325.52, 0.00, 0.000, 0.000, 0.000, 19:29:38.667
10, 0.00, 0.00, 224.09, 0.00, 0.000, 0.000, 0.000, 19:29:38.667
11, 0.00, 0.00, -632.94, 0.00, 0.000, 0.000, 0.000, 19:29:38.668
12, 0.00, 0.00, -28.57, 0.00, 0.000, 0.000, 0.000, 19:29:38.668
13, 0.00, 0.00, 349.63, 0.00, 0.000, 0.000, 0.000, 19:29:38.683
14, 0.00, 0.00, -517.27, 0.00, 0.000, 0.000, 0.000, 19:29:38.683
15, 0.00, 0.00, -395.21, 0.00, 0.000, 0.000, 0.000, 19:29:38.697
16, 0.00, 0.00, 429.29, 0.00, 0.000, 0.000, 0.000, 19:29:38.697
17, 0.00, 0.00, -271.74, 0.00, 0.000, 0.000, 0.000, 19:29:38.698
18, 0.00, 0.00, -657.58, 0.00, 0.000, 0.000, 0.000, 19:29:38.698
19, 0.00, 0.00, 262.89, 0.00, 0.000, 0.000, 0.000, 19:29:38.712
20, 0.00, 0.00, 136.11, 0.00, 0.000, 0.000, 0.000, 19:29:38.712
21, 0.00, 0.00, -602.40, 0.00, 0.000, 0.000, 0.000, 19:29:38.727
22, 0.00, 0.00, -103.25, 0.00, 0.000, 0.000, 0.000, 19:29:38.728
23, 0.00, 0.00, 346.64, 0.00, 0.000, 0.000, 0.000, 19:29:38.728
24, 0.00, 0.00, -503.49, 0.00, 0.000, 0.000, 0.000, 19:29:38.728
25, 0.00, 0.00, -420.58, 0.00, 0.000, 0.000, 0.000, 19:29:38.742
26, 0.00, 0.00, 455.82, 0.00, 0.000, 0.000, 0.000, 19:29:38.742
27, 0.00, 0.00, -108.90, 0.00, 0.000, 0.000, 0.000, 19:29:38.757
28, 0.00, 0.00, -612.35, 0.00, 0.000, 0.000, 0.000, 19:29:38.757
29, 0.00, 0.00, 238.77, 0.00, 0.000, 0.000, 0.000, 19:29:38.757
30, 0.00, 0.00, 121.07, 0.00, 0.000, 0.000, 0.000, 19:29:38.757
31, 0.00, 0.00, -566.65, 0.00, 0.000, 0.000, 0.000, 19:29:38.772
32, 0.00, 0.00, -15.08, 0.00, 0.000, 0.000, 0.000, 19:29:38.772
33, 0.00, 0.00, 412.77, 0.00, 0.000, 0.000, 0.000, 19:29:38.786
34, 0.00, 0.00, -468.03, 0.00, 0.000, 0.000, 0.000, 19:29:38.787
35, 0.00, 0.00, -358.90, 0.00, 0.000, 0.000, 0.000, 19:29:38.787
36, 0.00, 0.00, 430.49, 0.00, 0.000, 0.000, 0.000, 19:29:38.787
37, 0.00, 0.00, -61.91, 0.00, 0.000, 0.000, 0.000, 19:29:38.802
38, 0.00, 0.00, -614.28, 0.00, 0.000, 0.000, 0.000, 19:29:38.802
39, 0.00, 0.00, 272.13, 0.00, 0.000, 0.000, 0.000, 19:29:38.816
40, 0.00, 0.00, 193.23, 0.00, 0.000, 0.000, 0.000, 19:29:38.817
41, 0.00, 0.00, -599.11, 0.00, 0.000, 0.000, 0.000, 19:29:38.817
42, 0.00, 0.00, -10.29, 0.00, 0.000, 0.000, 0.000, 19:29:38.817
43, 0.00, 0.00, 437.58, 0.00, 0.000, 0.000, 0.000, 19:29:38.832
44, 0.00, 0.00, -418.98, 0.00, 0.000, 0.000, 0.000, 19:29:38.832
45, 0.00, 0.00, -345.71, 0.00, 0.000, 0.000, 0.000, 19:29:38.846
46, 0.00, 0.00, 480.85, 0.00, 0.000, 0.000, 0.000, 19:29:38.847
47, 0.00, 0.00, -160.29, 0.00, 0.000, 0.000, 0.000, 19:29:38.847
48, 0.00, 0.00, -586.60, 0.00, 0.000, 0.000, 0.000, 19:29:38.847
49, 0.00, 0.00, 236.20, 0.00, 0.000, 0.000, 0.000, 19:29:38.861
50, 0.00, 0.00, 209.20, 0.00, 0.000, 0.000, 0.000, 19:29:38.862
51, 0.00, 0.00, -643.72, 0.00, 0.000, 0.000, 0.000, 19:29:38.876
52, 0.00, 0.00, -49.59, 0.00, 0.000, 0.000, 0.000, 19:29:38.877
53, 0.00, 0.00, 419.56, 0.00, 0.000, 0.000, 0.000, 19:29:38.877
54, 0.00, 0.00, -412.97, 0.00, 0.000, 0.000, 0.000, 19:29:38.877
55, 0.00, 0.00, -399.35, 0.00, 0.000, 0.000, 0.000, 19:29:38.891
56, 0.00, 0.00, 431.75, 0.00, 0.000, 0.000, 0.000, 19:29:38.892
57, 0.00, 0.00, -152.35, 0.00, 0.000, 0.000, 0.000, 19:29:38.907
58, 0.00, 0.00, -575.47, 0.00, 0.000, 0.000, 0.000, 19:29:38.907
59, 0.00, 0.00, 237.65, 0.00, 0.000, 0.000, 0.000, 19:29:38.907
60, 0.00, 0.00, 173.01, 0.00, 0.000, 0.000, 0.000, 19:29:38.907
61, 0.00, 0.00, -627.87, 0.00, 0.000, 0.000, 0.000, 19:29:38.921
62, 0.00, 0.00, -115.23, 0.00, 0.000, 0.000, 0.000, 19:29:38.922
63, 0.00, 0.00, 338.37, 0.00, 0.000, 0.000, 0.000, 19:29:38.937
64, 0.00, 0.00, -469.48, 0.00, 0.000, 0.000, 0.000, 19:29:38.937
65, 0.00, 0.00, -385.85, 0.00, 0.000, 0.000, 0.000, 19:29:38.938
66, 0.00, 0.00, 406.83, 0.00, 0.000, 0.000, 0.000, 19:29:38.938
67, 0.00, 0.00, -82.76, 0.00, 0.000, 0.000, 0.000, 19:29:38.952
68, 0.00, 0.00, -565.79, 0.00, 0.000, 0.000, 0.000, 19:29:38.952
69, 0.00, 0.00, 250.13, 0.00, 0.000, 0.000, 0.000, 19:29:38.967
70, 0.00, 0.00, 149.48, 0.00, 0.000, 0.000, 0.000, 19:29:38.967
71, 0.00, 0.00, -555.85, 0.00, 0.000, 0.000, 0.000, 19:29:38.967
72, 0.00, 0.00, 2.69, 0.00, 0.000, 0.000, 0.000, 19:29:38.967
73, 0.00, 0.00, 460.59, 0.00, 0.000, 0.000, 0.000, 19:29:38.981
74, 0.00, 0.00, -405.62, 0.00, 0.000, 0.000, 0.000, 19:29:38.982
75, 0.00, 0.00, -375.68, 0.00, 0.000, 0.000, 0.000, 19:29:38.997
76, 0.00, 0.00, 418.74, 0.00, 0.000, 0.000, 0.000, 19:29:38.997
77, 0.00, 0.00, -69.52, 0.00, 0.000, 0.000, 0.000, 19:29:38.997
78, 0.00, 0.00, -558.38, 0.00, 0.000, 0.000, 0.000, 19:29:38.997
79, 0.00, 0.00, 240.14, 0.00, 0.000, 0.000, 0.000, 19:29:39.012
80, 0.00, 0.00, 214.75, 0.00, 0.000, 0.000, 0.000, 19:29:39.012
81, 0.00, 0.00, -527.82, 0.00, 0.000, 0.000, 0.000, 19:29:39.026
82, 0.00, 0.00, 5.34, 0.00, 0.000, 0.000, 0.000, 19:29:39.027
83, 0.00, 0.00, 384.20, 0.00, 0.000, 0.000, 0.000, 19:29:39.027
84, 0.00, 0.00, -383.64, 0.00, 0.000, 0.000, 0.000, 19:29:39.027
85, 0.00, 0.00, -312.94, 0.00, 0.000, 0.000, 0.000, 19:29:39.042
86, 0.00, 0.00, 438.12, 0.00, 0.000, 0.000, 0.000, 19:29:39.042
87, 0.00, 0.00, -118.82, 0.00, 0.000, 0.000, 0.000, 19:29:39.056
88, 0.00, 0.00, -513.62, 0.00, 0.000, 0.000, 0.000, 19:29:39.057
89, 0.00, 0.00, 253.85, 0.00, 0.000, 0.000, 0.000, 19:29:39.057
90, 0.00, 0.00, 200.91, 0.00, 0.000, 0.000, 0.000, 19:29:39.057
91, 0.00, 0.00, -567.29, 0.00, 0.000, 0.000, 0.000, 19:29:39.071
92, 0.00, 0.00, -98.16, 0.00, 0.000, 0.000, 0.000, 19:29:39.072
93, 0.00, 0.00, 460.90, 0.00, 0.000, 0.000, 0.000, 19:29:39.087
94, 0.00, 0.00, -454.87, 0.00, 0.000, 0.000, 0.000, 19:29:39.087
95, 0.00, 0.00, -302.17, 0.00, 0.000, 0.000, 0.000, 19:29:39.088
96, 0.00, 0.00, 366.52, 0.00, 0.000, 0.000, 0.000, 19:29:39.088
97, 0.00, 0.00, -93.84, 0.00, 0.000, 0.000, 0.000, 19:29:39.102
98, 0.00, 0.00, -629.80, 0.00, 0.000, 0.000, 0.000, 19:29:39.102
99, 0.00, 0.00, 217.74, 0.00, 0.000, 0.000, 0.000, 19:29:39.117
100, 0.00, 0.00, 175.25, 0.00, 0.000, 0.000, 0.000, 19:29:39.117
101, 0.00, 0.00, -597.85, 0.00, 0.000, 0.000, 0.000, 19:29:39.117
102, 0.00, 0.00, -40.30, 0.00, 0.000, 0.000, 0.000, 19:29:39.117
103, 0.00, 0.00, 359.75, 0.00, 0.000, 0.000, 0.000, 19:29:39.131
104, 0.00, 0.00, -371.36, 0.00, 0.000, 0.000, 0.000, 19:29:39.132
105, 0.00, 0.00, -462.26, 0.00, 0.000, 0.000, 0.000, 19:29:39.146
106, 0.00, 0.00, 478.26, 0.00, 0.000, 0.000, 0.000, 19:29:39.147
107, 0.00, 0.00, -98.54, 0.00, 0.000, 0.000, 0.000, 19:29:39.147
108, 0.00, 0.00, -601.56, 0.00, 0.000, 0.000, 0.000, 19:29:39.147
109, 0.00, 0.00, 264.65, 0.00, 0.000, 0.000, 0.000, 19:29:39.162
110, 0.00, 0.00, 212.34, 0.00, 0.000, 0.000, 0.000, 19:29:39.162
111, 0.00, 0.00, -663.50, 0.00, 0.000, 0.000, 0.000, 19:29:39.176
112, 0.00, 0.00, -54.58, 0.00, 0.000, 0.000, 0.000, 19:29:39.177
113, 0.00, 0.00, 415.85, 0.00, 0.000, 0.000, 0.000, 19:29:39.177
114, 0.00, 0.00, -441.75, 0.00, 0.000, 0.000, 0.000, 19:29:39.177
115, 0.00, 0.00, -399.71, 0.00, 0.000, 0.000, 0.000, 19:29:39.192
116, 0.00, 0.00, 371.21, 0.00, 0.000, 0.000, 0.000, 19:29:39.192
117, 0.00, 0.00, -139.40, 0.00, 0.000, 0.000, 0.000, 19:29:39.206
118, 0.00, 0.00, -549.92, 0.00, 0.000, 0.000, 0.000, 19:29:39.207
119, 0.00, 0.00, 204.17, 0.00, 0.000, 0.000, 0.000, 19:29:39.207
120, 0.00, 0.00, 233.59, 0.00, 0.000, 0.000, 0.000, 19:29:39.207
121, 0.00, 0.00, -652.41, 0.00, 0.000, 0.000, 0.000, 19:29:39.222
122, 0.00, 0.00, -100.12, 0.00, 0.000, 0.000, 0.000, 19:29:39.222
123, 0.00, 0.00, 391.42, 0.00, 0.000, 0.000, 0.000, 19:29:39.236
124, 0.00, 0.00, -381.72, 0.00, 0.000, 0.000, 0.000, 19:29:39.237
125, 0.00, 0.00, -377.11, 0.00, 0.000, 0.000, 0.000, 19:29:39.237
126, 0.00, 0.00, 391.58, 0.00, 0.000, 0.000, 0.000, 19:29:39.237
127, 0.00, 0.00, -97.92, 0.00, 0.000, 0.000, 0.000, 19:29:39.251
128, 0.00, 0.00, -532.63, 0.00, 0.000, 0.000, 0.000, 19:29:39.251
129, 0.00, 0.00, 287.79, 0.00, 0.000, 0.000, 0.000, 19:29:39.267
130, 0.00, 0.00, 179.92, 0.00, 0.000, 0.000, 0.000, 19:29:39.267
131, 0.00, 0.00, -594.20, 0.00, 0.000, 0.000, 0.000, 19:29:39.267
132, 0.00, 0.00, -56.38, 0.00, 0.000, 0.000, 0.000, 19:29:39.267
133, 0.00, 0.00, 434.31, 0.00, 0.000, 0.000, 0.000, 19:29:39.282
134, 0.00, 0.00, -359.87, 0.00, 0.000, 0.000, 0.000, 19:29:39.282
135, 0.00, 0.00, -318.67, 0.00, 0.000, 0.000, 0.000, 19:29:39.297
136, 0.00, 0.00, 475.96, 0.00, 0.000, 0.000, 0.000, 19:29:39.297
137, 0.00, 0.00, 102.03, 0.00, 0.000, 0.000, 0.000, 19:29:39.297
138, 0.00, 0.00, -266.65, 0.00, 0.000, 0.000, 0.000, 19:29:39.297
139, 0.00, 0.00, 567.92, 0.00, 0.000, 0.000, 0.000, 19:29:39.312
140, 0.00, 0.00, 466.40, 0.00, 0.000, 0.000, 0.000, 19:29:39.312
141, 0.00, 0.00, -378.86, 0.00, 0.000, 0.000, 0.000, 19:29:39.326
142, 0.00, 0.00, -131.86, 0.00, 0.000, 0.000, 0.000, 19:29:39.327
143, 0.00, 0.00, 189.09, 0.00, 0.000, 0.000, 0.000, 19:29:39.327
144, 0.00, 0.00, -614.02, 0.00, 0.000, 0.000, 0.000, 19:29:39.327
145, 0.00, 0.00, -522.34, 0.00, 0.000, 0.000, 0.000, 19:29:39.341
146, 0.00, 0.00, 357.51, 0.00, 0.000, 0.000, 0.000, 19:29:39.342
147, 0.00, 0.00, -105.30, 0.00, 0.000, 0.000, 0.000, 19:29:39.356
148, 0.00, 0.00, -706.79, 0.00, 0.000, 0.000, 0.000, 19:29:39.357
149, 0.00, 0.00, 155.69, 0.00, 0.000, 0.000, 0.000, 19:29:39.357
150, 0.00, 0.00, 192.93, 0.00, 0.000, 0.000, 0.000, 19:29:39.357
151, 0.00, 0.00, -607.91, 0.00, 0.000, 0.000, 0.000, 19:29:39.372
152, 0.00, 0.00, -117.82, 0.00, 0.000, 0.000, 0.000, 19:29:39.372
153, 0.00, 0.00, 331.19, 0.00, 0.000, 0.000, 0.000, 19:29:39.387
154, 0.00, 0.00, -439.82, 0.00, 0.000, 0.000, 0.000, 19:29:39.387
155, 0.00, 0.00, -403.82, 0.00, 0.000, 0.000, 0.000, 19:29:39.387
156, 0.00, 0.00, 352.70, 0.00, 0.000, 0.000, 0.000, 19:29:39.387
157, 0.00, 0.00, -142.18, 0.00, 0.000, 0.000, 0.000, 19:29:39.401
158, 0.00, 0.00, -538.56, 0.00, 0.000, 0.000, 0.000, 19:29:39.402
159, 0.00, 0.00, 182.52, 0.00, 0.000, 0.000, 0.000, 19:29:39.416
160, 0.00, 0.00, 175.05, 0.00, 0.000, 0.000, 0.000, 19:29:39.417
161, 0.00, 0.00, -581.43, 0.00, 0.000, 0.000, 0.000, 19:29:39.417
162, 0.00, 0.00, -135.33, 0.00, 0.000, 0.000, 0.000, 19:29:39.417
163, 0.00, 0.00, 477.33, 0.00, 0.000, 0.000, 0.000, 19:29:39.431
164, 0.00, 0.00, -352.84, 0.00, 0.000, 0.000, 0.000, 19:29:39.432
165, 0.00, 0.00, -424.44, 0.00, 0.000, 0.000, 0.000, 19:29:39.447
166, 0.00, 0.00, 389.26, 0.00, 0.000, 0.000, 0.000, 19:29:39.447
167, 0.00, 0.00, -66.68, 0.00, 0.000, 0.000, 0.000, 19:29:39.447
168, 0.00, 0.00, -579.14, 0.00, 0.000, 0.000, 0.000, 19:29:39.447
169, 0.00, 0.00, 185.38, 0.00, 0.000, 0.000, 0.000, 19:29:39.461
170, 0.00, 0.00, 298.33, 0.00, 0.000, 0.000, 0.000, 19:29:39.462
171, 0.00, 0.00, -660.94, 0.00, 0.000, 0.000, 0.000, 19:29:39.477
172, 0.00, 0.00, -74.60, 0.00, 0.000, 0.000, 0.000, 19:29:39.477
173, 0.00, 0.00, 482.81, 0.00, 0.000, 0.000, 0.000, 19:29:39.477
174, 0.00, 0.00, -390.02, 0.00, 0.000, 0.000, 0.000, 19:29:39.477
175, 0.00, 0.00, -354.79, 0.00, 0.000, 0.000, 0.000, 19:29:39.492
176, 0.00, 0.00, 411.56, 0.00, 0.000, 0.000, 0.000, 19:29:39.492
177, 0.00, 0.00, -33.97, 0.00, 0.000, 0.000, 0.000, 19:29:39.506
178, 0.00, 0.00, -520.47, 0.00, 0.000, 0.000, 0.000, 19:29:39.507
179, 0.00, 0.00, 265.62, 0.00, 0.000, 0.000, 0.000, 19:29:39.507
180, 0.00, 0.00, 273.69, 0.00, 0.000, 0.000, 0.000, 19:29:39.507
181, 0.00, 0.00, -581.95, 0.00, 0.000, 0.000, 0.000, 19:29:39.521
182, 0.00, 0.00, -80.17, 0.00, 0.000, 0.000, 0.000, 19:29:39.522
183, 0.00, 0.00, 442.79, 0.00, 0.000, 0.000, 0.000, 19:29:39.537
184, 0.00, 0.00, -346.88, 0.00, 0.000, 0.000, 0.000, 19:29:39.537
185, 0.00, 0.00, -324.88, 0.00, 0.000, 0.000, 0.000, 19:29:39.537
186, 0.00, 0.00, 445.32, 0.00, 0.000, 0.000, 0.000, 19:29:39.537
187, 0.00, 0.00, -1.63, 0.00, 0.000, 0.000, 0.000, 19:29:39.552
188, 0.00, 0.00, -497.26, 0.00, 0.000, 0.000, 0.000, 19:29:39.552
189, 0.00, 0.00, 257.74, 0.00, 0.000, 0.000, 0.000, 19:29:39.582
190, 0.00, 0.00, 282.28, 0.00, 0.000, 0.000, 0.000, 19:29:39.582
191, 0.00, 0.00, -513.54, 0.00, 0.000, 0.000, 0.000, 19:29:39.582
192, 0.00, 0.00, -84.74, 0.00, 0.000, 0.000, 0.000, 19:29:39.582
193, 0.00, 0.00, 473.44, 0.00, 0.000, 0.000, 0.000, 19:29:39.583
194, 0.00, 0.00, -361.37, 0.00, 0.000, 0.000, 0.000, 19:29:39.583
195, 0.00, 0.00, -371.20, 0.00, 0.000, 0.000, 0.000, 19:29:39.596
196, 0.00, 0.00, 355.99, 0.00, 0.000, 0.000, 0.000, 19:29:39.597
197, 0.00, 0.00, -76.27, 0.00, 0.000, 0.000, 0.000, 19:29:39.597
198, 0.00, 0.00, -622.56, 0.00, 0.000, 0.000, 0.000, 19:29:39.597
199, 0.00, 0.00, 158.22, 0.00, 0.000, 0.000, 0.000, 19:29:39.612
200, 0.00, 0.00, 191.26, 0.00, 0.000, 0.000, 0.000, 19:29:39.612
0, 0.00, 0.00, -631.24, 0.00, 0.000, 0.000, 0.000, 19:29:39.612
1, 0.00, 0.00, -200.87, 0.00, 0.000, 0.000, 0.000, 19:29:39.626
2, 0.00, 0.00, 321.32, 0.00, 0.000, 0.000, 0.000, 19:29:39.627
3, 0.00, 0.00, -364.53, 0.00, 0.000, 0.000, 0.000, 19:29:39.641
4, 0.00, 0.00, -441.78, 0.00, 0.000, 0.000, 0.000, 19:29:39.642
5, 0.00, 0.00, 377.70, 0.00, 0.000, 0.000, 0.000, 19:29:39.642
6, 0.00, 0.00, -78.47, 0.00, 0.000, 0.000, 0.000, 19:29:39.642
7, 0.00, 0.00, -667.69, 0.00, 0.000, 0.000, 0.000, 19:29:39.657
8, 0.00, 0.00, 170.78, 0.00, 0.000, 0.000, 0.000, 19:29:39.657
9, 0.00, 0.00, 173.57, 0.00, 0.000, 0.000, 0.000, 19:29:39.671
10, 0.00, 0.00, -591.67, 0.00, 0.000, 0.000, 0.000, 19:29:39.672
11, 0.00, 0.00, -161.39, 0.00, 0.000, 0.000, 0.000, 19:29:39.672
12, 0.00, 0.00, 380.27, 0.00, 0.000, 0.000, 0.000, 19:29:39.672
13, 0.00, 0.00, -357.54, 0.00, 0.000, 0.000, 0.000, 19:29:39.687
14, 0.00, 0.00, -416.13, 0.00, 0.000, 0.000, 0.000, 19:29:39.687
15, 0.00, 0.00, 355.30, 0.00, 0.000, 0.000, 0.000, 19:29:39.701
16, 0.00, 0.00, -83.55, 0.00, 0.000, 0.000, 0.000, 19:29:39.702
17, 0.00, 0.00, -617.84, 0.00, 0.000, 0.000, 0.000, 19:29:39.702
18, 0.00, 0.00, 164.47, 0.00, 0.000, 0.000, 0.000, 19:29:39.702
19, 0.00, 0.00, 257.88, 0.00, 0.000, 0.000, 0.000, 19:29:39.716
20, 0.00, 0.00, -556.99, 0.00, 0.000, 0.000, 0.000, 19:29:39.717
21, 0.00, 0.00, -82.54, 0.00, 0.000, 0.000, 0.000, 19:29:39.732
22, 0.00, 0.00, 404.63, 0.00, 0.000, 0.000, 0.000, 19:29:39.732
23, 0.00, 0.00, -347.40, 0.00, 0.000, 0.000, 0.000, 19:29:39.732
24, 0.00, 0.00, -458.58, 0.00, 0.000, 0.000, 0.000, 19:29:39.732
25, 0.00, 0.00, 435.48, 0.00, 0.000, 0.000, 0.000, 19:29:39.746
26, 0.00, 0.00, -78.43, 0.00, 0.000, 0.000, 0.000, 19:29:39.747
27, 0.00, 0.00, -610.34, 0.00, 0.000, 0.000, 0.000, 19:29:39.762
28, 0.00, 0.00, 248.55, 0.00, 0.000, 0.000, 0.000, 19:29:39.762
29, 0.00, 0.00, 246.71, 0.00, 0.000, 0.000, 0.000, 19:29:39.763
30, 0.00, 0.00, -531.94, 0.00, 0.000, 0.000, 0.000, 19:29:39.763
31, 0.00, 0.00, -127.80, 0.00, 0.000, 0.000, 0.000, 19:29:39.777
32, 0.00, 0.00, 399.66, 0.00, 0.000, 0.000, 0.000, 19:29:39.777
33, 0.00, 0.00, -362.20, 0.00, 0.000, 0.000, 0.000, 19:29:39.791
34, 0.00, 0.00, -403.52, 0.00, 0.000, 0.000, 0.000, 19:29:39.792
35, 0.00, 0.00, 408.26, 0.00, 0.000, 0.000, 0.000, 19:29:39.792
36, 0.00, 0.00, -41.75, 0.00, 0.000, 0.000, 0.000, 19:29:39.792
37, 0.00, 0.00, -567.28, 0.00, 0.000, 0.000, 0.000, 19:29:39.806
38, 0.00, 0.00, 136.75, 0.00, 0.000, 0.000, 0.000, 19:29:39.807
39, 0.00, 0.00, 258.43, 0.00, 0.000, 0.000, 0.000, 19:29:39.821
40, 0.00, 0.00, -540.94, 0.00, 0.000, 0.000, 0.000, 19:29:39.821
41, 0.00, 0.00, -122.95, 0.00, 0.000, 0.000, 0.000, 19:29:39.822
42, 0.00, 0.00, 392.13, 0.00, 0.000, 0.000, 0.000, 19:29:39.822
43, 0.00, 0.00, -341.62, 0.00, 0.000, 0.000, 0.000, 19:29:39.837
44, 0.00, 0.00, -411.11, 0.00, 0.000, 0.000, 0.000, 19:29:39.837
45, 0.00, 0.00, 411.48, 0.00, 0.000, 0.000, 0.000, 19:29:39.851
46, 0.00, 0.00, -81.95, 0.00, 0.000, 0.000, 0.000, 19:29:39.852
47, 0.00, 0.00, -583.37, 0.00, 0.000, 0.000, 0.000, 19:29:39.852
48, 0.00, 0.00, 189.80, 0.00, 0.000, 0.000, 0.000, 19:29:39.852
49, 0.00, 0.00, 251.37, 0.00, 0.000, 0.000, 0.000, 19:29:39.867
50, 0.00, 0.00, -536.33, 0.00, 0.000, 0.000, 0.000, 19:29:39.867
51, 0.00, 0.00, -164.82, 0.00, 0.000, 0.000, 0.000, 19:29:39.881
52, 0.00, 0.00, 378.85, 0.00, 0.000, 0.000, 0.000, 19:29:39.882
53, 0.00, 0.00, -303.14, 0.00, 0.000, 0.000, 0.000, 19:29:39.882
54, 0.00, 0.00, -481.70, 0.00, 0.000, 0.000, 0.000, 19:29:39.882
55, 0.00, 0.00, 434.99, 0.00, 0.000, 0.000, 0.000, 19:29:39.896
56, 0.00, 0.00, -76.98, 0.00, 0.000, 0.000, 0.000, 19:29:39.897
57, 0.00, 0.00, -536.22, 0.00, 0.000, 0.000, 0.000, 19:29:39.911
58, 0.00, 0.00, 160.43, 0.00, 0.000, 0.000, 0.000, 19:29:39.912
59, 0.00, 0.00, 287.38, 0.00, 0.000, 0.000, 0.000, 19:29:39.912
60, 0.00, 0.00, -573.47, 0.00, 0.000, 0.000, 0.000, 19:29:39.912
61, 0.00, 0.00, -162.88, 0.00, 0.000, 0.000, 0.000, 19:29:39.927
62, 0.00, 0.00, 406.79, 0.00, 0.000, 0.000, 0.000, 19:29:39.927
63, 0.00, 0.00, -330.12, 0.00, 0.000, 0.000, 0.000, 19:29:39.942
64, 0.00, 0.00, -405.49, 0.00, 0.000, 0.000, 0.000, 19:29:39.942
65, 0.00, 0.00, 427.79, 0.00, 0.000, 0.000, 0.000, 19:29:39.942
66, 0.00, 0.00, -53.00, 0.00, 0.000, 0.000, 0.000, 19:29:39.942
67, 0.00, 0.00, -587.06, 0.00, 0.000, 0.000, 0.000, 19:29:39.957
68, 0.00, 0.00, 165.80, 0.00, 0.000, 0.000, 0.000, 19:29:39.957
69, 0.00, 0.00, 262.70, 0.00, 0.000, 0.000, 0.000, 19:29:39.972
70, 0.00, 0.00, -532.36, 0.00, 0.000, 0.000, 0.000, 19:29:39.972
71, 0.00, 0.00, -170.67, 0.00, 0.000, 0.000, 0.000, 19:29:39.972
72, 0.00, 0.00, 422.81, 0.00, 0.000, 0.000, 0.000, 19:29:39.972
73, 0.00, 0.00, -363.34, 0.00, 0.000, 0.000, 0.000, 19:29:39.987
74, 0.00, 0.00, -411.01, 0.00, 0.000, 0.000, 0.000, 19:29:39.987
75, 0.00, 0.00, 378.65, 0.00, 0.000, 0.000, 0.000, 19:29:40.001
76, 0.00, 0.00, -38.06, 0.00, 0.000, 0.000, 0.000, 19:29:40.002
77, 0.00, 0.00, -598.09, 0.00, 0.000, 0.000, 0.000, 19:29:40.002
78, 0.00, 0.00, 148.65, 0.00, 0.000, 0.000, 0.000, 19:29:40.002
79, 0.00, 0.00, 288.42, 0.00, 0.000, 0.000, 0.000, 19:29:40.017
80, 0.00, 0.00, -536.86, 0.00, 0.000, 0.000, 0.000, 19:29:40.017
81, 0.00, 0.00, -189.62, 0.00, 0.000, 0.000, 0.000, 19:29:40.031
82, 0.00, 0.00, 441.34, 0.00, 0.000, 0.000, 0.000, 19:29:40.032
83, 0.00, 0.00, -345.22, 0.00, 0.000, 0.000, 0.000, 19:29:40.032
84, 0.00, 0.00, -408.15, 0.00, 0.000, 0.000, 0.000, 19:29:40.032
85, 0.00, 0.00, 448.69, 0.00, 0.000, 0.000, 0.000, 19:29:40.047
86, 0.00, 0.00, -4.25, 0.00, 0.000, 0.000, 0.000, 19:29:40.047
87, 0.00, 0.00, -595.39, 0.00, 0.000, 0.000, 0.000, 19:29:40.061
88, 0.00, 0.00, 131.35, 0.00, 0.000, 0.000, 0.000, 19:29:40.062
89, 0.00, 0.00, 321.05, 0.00, 0.000, 0.000, 0.000, 19:29:40.062
90, 0.00, 0.00, -600.99, 0.00, 0.000, 0.000, 0.000, 19:29:40.062
91, 0.00, 0.00, -178.29, 0.00, 0.000, 0.000, 0.000, 19:29:40.077
92, 0.00, 0.00, 456.04, 0.00, 0.000, 0.000, 0.000, 19:29:40.077
93, 0.00, 0.00, -360.10, 0.00, 0.000, 0.000, 0.000, 19:29:40.091
94, 0.00, 0.00, -376.04, 0.00, 0.000, 0.000, 0.000, 19:29:40.092
95, 0.00, 0.00, 397.34, 0.00, 0.000, 0.000, 0.000, 19:29:40.092
96, 0.00, 0.00, 33.49, 0.00, 0.000, 0.000, 0.000, 19:29:40.092
97, 0.00, 0.00, -530.30, 0.00, 0.000, 0.000, 0.000, 19:29:40.106
98, 0.00, 0.00, 142.69, 0.00, 0.000, 0.000, 0.000, 19:29:40.107
99, 0.00, 0.00, 243.95, 0.00, 0.000, 0.000, 0.000, 19:29:40.122
100, 0.00, 0.00, -516.99, 0.00, 0.000, 0.000, 0.000, 19:29:40.122
101, 0.00, 0.00, -128.30, 0.00, 0.000, 0.000, 0.000, 19:29:40.122
102, 0.00, 0.00, 407.48, 0.00, 0.000, 0.000, 0.000, 19:29:40.122
103, 0.00, 0.00, -312.21, 0.00, 0.000, 0.000, 0.000, 19:29:40.136
104, 0.00, 0.00, -496.27, 0.00, 0.000, 0.000, 0.000, 19:29:40.136
105, 0.00, 0.00, 390.14, 0.00, 0.000, 0.000, 0.000, 19:29:40.152
106, 0.00, 0.00, -29.26, 0.00, 0.000, 0.000, 0.000, 19:29:40.152
107, 0.00, 0.00, -659.21, 0.00, 0.000, 0.000, 0.000, 19:29:40.152
108, 0.00, 0.00, 111.86, 0.00, 0.000, 0.000, 0.000, 19:29:40.152
109, 0.00, 0.00, 259.59, 0.00, 0.000, 0.000, 0.000, 19:29:40.166
110, 0.00, 0.00, -617.48, 0.00, 0.000, 0.000, 0.000, 19:29:40.167
111, 0.00, 0.00, -88.23, 0.00, 0.000, 0.000, 0.000, 19:29:40.182
112, 0.00, 0.00, 376.55, 0.00, 0.000, 0.000, 0.000, 19:29:40.182
113, 0.00, 0.00, -330.59, 0.00, 0.000, 0.000, 0.000, 19:29:40.182
114, 0.00, 0.00, -427.10, 0.00, 0.000, 0.000, 0.000, 19:29:40.182
115, 0.00, 0.00, 339.60, 0.00, 0.000, 0.000, 0.000, 19:29:40.196
116, 0.00, 0.00, -37.08, 0.00, 0.000, 0.000, 0.000, 19:29:40.197
117, 0.00, 0.00, -564.83, 0.00, 0.000, 0.000, 0.000, 19:29:40.211
118, 0.00, 0.00, 150.06, 0.00, 0.000, 0.000, 0.000, 19:29:40.211
119, 0.00, 0.00, 295.28, 0.00, 0.000, 0.000, 0.000, 19:29:40.212
120, 0.00, 0.00, -543.72, 0.00, 0.000, 0.000, 0.000, 19:29:40.212
121, 0.00, 0.00, -104.18, 0.00, 0.000, 0.000, 0.000, 19:29:40.233
122, 0.00, 0.00, 437.98, 0.00, 0.000, 0.000, 0.000, 19:29:40.233
123, 0.00, 0.00, -196.73, 0.00, 0.000, 0.000, 0.000, 19:29:40.242
124, 0.00, 0.00, -236.72, 0.00, 0.000, 0.000, 0.000, 19:29:40.243
125, 0.00, 0.00, 707.33, 0.00, 0.000, 0.000, 0.000, 19:29:40.243
126, 0.00, 0.00, 254.35, 0.00, 0.000, 0.000, 0.000, 19:29:40.243
127, 0.00, 0.00, -382.61, 0.00, 0.000, 0.000, 0.000, 19:29:40.257
128, 0.00, 0.00, 289.81, 0.00, 0.000, 0.000, 0.000, 19:29:40.257
129, 0.00, 0.00, 251.03, 0.00, 0.000, 0.000, 0.000, 19:29:40.272
130, 0.00, 0.00, 127.35, 0.00, 0.000, 0.000, 0.000, 19:29:40.272
131, 0.00, 0.00, 586.21, 0.00, 0.000, 0.000, 0.000, 19:29:40.272
132, 0.00, 0.00, 1270.84, 0.00, 0.000, 0.000, 0.000, 19:29:40.273
133, 0.00, 0.00, 601.38, 0.00, 0.000, 0.000, 0.000, 19:29:40.287
134, 0.00, 0.00, 482.08, 0.00, 0.000, 0.000, 0.000, 19:29:40.287
135, 0.00, 0.00, 1277.93, 0.00, 0.000, 0.000, 0.000, 19:29:40.301
136, 0.00, 0.00, 881.43, 0.00, 0.000, 0.000, 0.000, 19:29:40.302
137, 0.00, 0.00, 359.63, 0.00, 0.000, 0.000, 0.000, 19:29:40.302
138, 0.00, 0.00, 1179.00, 0.00, 0.000, 0.000, 0.000, 19:29:40.302
139, 0.00, 0.00, 1185.23, 0.00, 0.000, 0.000, 0.000, 19:29:40.317
140, 0.00, 0.00, 431.04, 0.00, 0.000, 0.000, 0.000, 19:29:40.317
141, 0.00, 0.00, 774.54, 0.00, 0.000, 0.000, 0.000, 19:29:40.332
142, 0.00, 0.00, 1365.21, 0.00, 0.000, 0.000, 0.000, 19:29:40.332
143, 0.00, 0.00, 702.27, 0.00, 0.000, 0.000, 0.000, 19:29:40.332
144, 0.00, 0.00, 498.12, 0.00, 0.000, 0.000, 0.000, 19:29:40.332
145, 0.00, 0.00, 1303.60, 0.00, 0.000, 0.000, 0.000, 19:29:40.346
146, 0.00, 0.00, 956.14, 0.00, 0.000, 0.000, 0.000, 19:29:40.347
147, 0.00, 0.00, 394.90, 0.00, 0.000, 0.000, 0.000, 19:29:40.362
148, 0.00, 0.00, 1073.59, 0.00, 0.000, 0.000, 0.000, 19:29:40.362
149, 0.00, 0.00, 1251.74, 0.00, 0.000, 0.000, 0.000, 19:29:40.362
150, 0.00, 0.00, 397.70, 0.00, 0.000, 0.000, 0.000, 19:29:40.362
151, 0.00, 0.00, 833.49, 0.00, 0.000, 0.000, 0.000, 19:29:40.376
152, 0.00, 0.00, 1419.37, 0.00, 0.000, 0.000, 0.000, 19:29:40.377
153, 0.00, 0.00, 712.88, 0.00, 0.000, 0.000, 0.000, 19:29:40.391
154, 0.00, 0.00, 528.21, 0.00, 0.000, 0.000, 0.000, 19:29:40.391
155, 0.00, 0.00, 1363.22, 0.00, 0.000, 0.000, 0.000, 19:29:40.392
156, 0.00, 0.00, 981.98, 0.00, 0.000, 0.000, 0.000, 19:29:40.392
157, 0.00, 0.00, 436.98, 0.00, 0.000, 0.000, 0.000, 19:29:40.407
158, 0.00, 0.00, 1099.30, 0.00, 0.000, 0.000, 0.000, 19:29:40.407
159, 0.00, 0.00, 1291.64, 0.00, 0.000, 0.000, 0.000, 19:29:40.421
160, 0.00, 0.00, 412.05, 0.00, 0.000, 0.000, 0.000, 19:29:40.421
161, 0.00, 0.00, 853.52, 0.00, 0.000, 0.000, 0.000, 19:29:40.422
162, 0.00, 0.00, 1401.60, 0.00, 0.000, 0.000, 0.000, 19:29:40.422
163, 0.00, 0.00, 650.52, 0.00, 0.000, 0.000, 0.000, 19:29:40.437
164, 0.00, 0.00, 612.12, 0.00, 0.000, 0.000, 0.000, 19:29:40.437
165, 0.00, 0.00, 1395.20, 0.00, 0.000, 0.000, 0.000, 19:29:40.451
166, 0.00, 0.00, 967.01, 0.00, 0.000, 0.000, 0.000, 19:29:40.452
167, 0.00, 0.00, 462.73, 0.00, 0.000, 0.000, 0.000, 19:29:40.452
168, 0.00, 0.00, 1080.31, 0.00, 0.000, 0.000, 0.000, 19:29:40.452
169, 0.00, 0.00, 1324.47, 0.00, 0.000, 0.000, 0.000, 19:29:40.467
170, 0.00, 0.00, 498.11, 0.00, 0.000, 0.000, 0.000, 19:29:40.467
171, 0.00, 0.00, 892.88, 0.00, 0.000, 0.000, 0.000, 19:29:40.481
172, 0.00, 0.00, 1454.56, 0.00, 0.000, 0.000, 0.000, 19:29:40.482
173, 0.00, 0.00, 704.14, 0.00, 0.000, 0.000, 0.000, 19:29:40.482
174, 0.00, 0.00, 576.35, 0.00, 0.000, 0.000, 0.000, 19:29:40.482
175, 0.00, 0.00, 1407.34, 0.00, 0.000, 0.000, 0.000, 19:29:40.496
176, 0.00, 0.00, 1097.71, 0.00, 0.000, 0.000, 0.000, 19:29:40.497
177, 0.00, 0.00, 384.62, 0.00, 0.000, 0.000, 0.000, 19:29:40.512
178, 0.00, 0.00, 1165.78, 0.00, 0.000, 0.000, 0.000, 19:29:40.512
179, 0.00, 0.00, 1298.30, 0.00, 0.000, 0.000, 0.000, 19:29:40.512
180, 0.00, 0.00, 457.25, 0.00, 0.000, 0.000, 0.000, 19:29:40.512
181, 0.00, 0.00, 861.48, 0.00, 0.000, 0.000, 0.000, 19:29:40.526
182, 0.00, 0.00, 1395.37, 0.00, 0.000, 0.000, 0.000, 19:29:40.527
183, 0.00, 0.00, 701.92, 0.00, 0.000, 0.000, 0.000, 19:29:40.542
184, 0.00, 0.00, 453.36, 0.00, 0.000, 0.000, 0.000, 19:29:40.542
185, 0.00, 0.00, 1329.25, 0.00, 0.000, 0.000, 0.000, 19:29:40.542
186, 0.00, 0.00, 968.50, 0.00, 0.000, 0.000, 0.000, 19:29:40.542
187, 0.00, 0.00, 356.19, 0.00, 0.000, 0.000, 0.000, 19:29:40.556
188, 0.00, 0.00, 1071.44, 0.00, 0.000, 0.000, 0.000, 19:29:40.557
189, 0.00, 0.00, 1217.12, 0.00, 0.000, 0.000, 0.000, 19:29:40.572
190, 0.00, 0.00, 332.87, 0.00, 0.000, 0.000, 0.000, 19:29:40.572
191, 0.00, 0.00, 774.21, 0.00, 0.000, 0.000, 0.000, 19:29:40.572
192, 0.00, 0.00, 1355.41, 0.00, 0.000, 0.000, 0.000, 19:29:40.572
193, 0.00, 0.00, 599.13, 0.00, 0.000, 0.000, 0.000, 19:29:40.587
194, 0.00, 0.00, 487.57, 0.00, 0.000, 0.000, 0.000, 19:29:40.587
195, 0.00, 0.00, 1349.63, 0.00, 0.000, 0.000, 0.000, 19:29:40.601
196, 0.00, 0.00, 919.92, 0.00, 0.000, 0.000, 0.000, 19:29:40.602
197, 0.00, 0.00, 351.15, 0.00, 0.000, 0.000, 0.000, 19:29:40.602
198, 0.00, 0.00, 1061.90, 0.00, 0.000, 0.000, 0.000, 19:29:40.602
199, 0.00, 0.00, 1229.16, 0.00, 0.000, 0.000, 0.000, 19:29:40.617
200, 0.00, 0.00, 428.06, 0.00, 0.000, 0.000, 0.000, 19:29:40.617
0, 0.00, 0.00, -238.59, 0.00, 0.000, 0.000, 0.000, 19:29:40.617
1, 0.00, 0.00, 433.05, 0.00, 0.000, 0.000, 0.000, 19:29:40.632
2, 0.00, 0.00, -281.93, 0.00, 0.000, 0.000, 0.000, 19:29:40.632
3, 0.00, 0.00, -467.39, 0.00, 0.000, 0.000, 0.000, 19:29:40.647
4, 0.00, 0.00, 306.22, 0.00, 0.000, 0.000, 0.000, 19:29:40.647
5, 0.00, 0.00, -15.93, 0.00, 0.000, 0.000, 0.000, 19:29:40.647
6, 0.00, 0.00, -592.64, 0.00, 0.000, 0.000, 0.000, 19:29:40.648
7, 0.00, 0.00, 140.16, 0.00, 0.000, 0.000, 0.000, 19:29:40.661
8, 0.00, 0.00, 249.54, 0.00, 0.000, 0.000, 0.000, 19:29:40.662
9, 0.00, 0.00, -548.00, 0.00, 0.000, 0.000, 0.000, 19:29:40.676
10, 0.00, 0.00, -151.53, 0.00, 0.000, 0.000, 0.000, 19:29:40.676
11, 0.00, 0.00, 418.41, 0.00, 0.000, 0.000, 0.000, 19:29:40.677
12, 0.00, 0.00, -247.18, 0.00, 0.000, 0.000, 0.000, 19:29:40.677
13, 0.00, 0.00, -442.46, 0.00, 0.000, 0.000, 0.000, 19:29:40.692
14, 0.00, 0.00, 322.85, 0.00, 0.000, 0.000, 0.000, 19:29:40.692
15, 0.00, 0.00, 2.53, 0.00, 0.000, 0.000, 0.000, 19:29:40.706
16, 0.00, 0.00, -561.08, 0.00, 0.000, 0.000, 0.000, 19:29:40.706
17, 0.00, 0.00, 160.53, 0.00, 0.000, 0.000, 0.000, 19:29:40.707
18, 0.00, 0.00, 270.92, 0.00, 0.000, 0.000, 0.000, 19:29:40.707
19, 0.00, 0.00, -503.49, 0.00, 0.000, 0.000, 0.000, 19:29:40.722
20, 0.00, 0.00, -217.36, 0.00, 0.000, 0.000, 0.000, 19:29:40.722
21, 0.00, 0.00, 456.33, 0.00, 0.000, 0.000, 0.000, 19:29:40.736
22, 0.00, 0.00, -323.85, 0.00, 0.000, 0.000, 0.000, 19:29:40.737
23, 0.00, 0.00, -471.95, 0.00, 0.000, 0.000, 0.000, 19:29:40.737
24, 0.00, 0.00, 386.01, 0.00, 0.000, 0.000, 0.000, 19:29:40.737
25, 0.00, 0.00, -36.76, 0.00, 0.000, 0.000, 0.000, 19:29:40.752
26, 0.00, 0.00, -552.96, 0.00, 0.000, 0.000, 0.000, 19:29:40.752
27, 0.00, 0.00, 117.46, 0.00, 0.000, 0.000, 0.000, 19:29:40.766
28, 0.00, 0.00, 272.93, 0.00, 0.000, 0.000, 0.000, 19:29:40.767
29, 0.00, 0.00, -560.18, 0.00, 0.000, 0.000, 0.000, 19:29:40.767
30, 0.00, 0.00, -100.81, 0.00, 0.000, 0.000, 0.000, 19:29:40.767
31, 0.00, 0.00, 412.13, 0.00, 0.000, 0.000, 0.000, 19:29:40.781
32, 0.00, 0.00, -291.40, 0.00, 0.000, 0.000, 0.000, 19:29:40.782
33, 0.00, 0.00, -489.70, 0.00, 0.000, 0.000, 0.000, 19:29:40.797
34, 0.00, 0.00, 365.29, 0.00, 0.000, 0.000, 0.000, 19:29:40.797
35, 0.00, 0.00, 4.99, 0.00, 0.000, 0.000, 0.000, 19:29:40.811
36, 0.00, 0.00, -611.16, 0.00, 0.000, 0.000, 0.000, 19:29:40.812
37, 0.00, 0.00, 134.40, 0.00, 0.000, 0.000, 0.000, 19:29:40.812
38, 0.00, 0.00, 291.53, 0.00, 0.000, 0.000, 0.000, 19:29:40.812
39, 0.00, 0.00, -521.37, 0.00, 0.000, 0.000, 0.000, 19:29:40.827
40, 0.00, 0.00, -137.84, 0.00, 0.000, 0.000, 0.000, 19:29:40.827
41, 0.00, 0.00, 458.50, 0.00, 0.000, 0.000, 0.000, 19:29:40.827
42, 0.00, 0.00, -335.05, 0.00, 0.000, 0.000, 0.000, 19:29:40.827
43, 0.00, 0.00, -523.93, 0.00, 0.000, 0.000, 0.000, 19:29:40.841
44, 0.00, 0.00, 342.49, 0.00, 0.000, 0.000, 0.000, 19:29:40.842
45, 0.00, 0.00, 59.74, 0.00, 0.000, 0.000, 0.000, 19:29:40.872
46, 0.00, 0.00, -628.20, 0.00, 0.000, 0.000, 0.000, 19:29:40.872
47, 0.00, 0.00, 160.49, 0.00, 0.000, 0.000, 0.000, 19:29:40.872
48, 0.00, 0.00, 265.15, 0.00, 0.000, 0.000, 0.000, 19:29:40.872
49, 0.00, 0.00, -570.56, 0.00, 0.000, 0.000, 0.000, 19:29:40.873
50, 0.00, 0.00, -176.19, 0.00, 0.000, 0.000, 0.000, 19:29:40.873
51, 0.00, 0.00, 431.22, 0.00, 0.000, 0.000, 0.000, 19:29:40.886
52, 0.00, 0.00, -257.08, 0.00, 0.000, 0.000, 0.000, 19:29:40.886
53, 0.00, 0.00, -497.05, 0.00, 0.000, 0.000, 0.000, 19:29:40.887
54, 0.00, 0.00, 292.95, 0.00, 0.000, 0.000, 0.000, 19:29:40.887
55, 0.00, 0.00, 100.58, 0.00, 0.000, 0.000, 0.000, 19:29:40.902
56, 0.00, 0.00, -590.53, 0.00, 0.000, 0.000, 0.000, 19:29:40.902
57, 0.00, 0.00, 103.74, 0.00, 0.000, 0.000, 0.000, 19:29:40.916
58, 0.00, 0.00, 274.16, 0.00, 0.000, 0.000, 0.000, 19:29:40.917
59, 0.00, 0.00, -484.71, 0.00, 0.000, 0.000, 0.000, 19:29:40.917
60, 0.00, 0.00, -205.99, 0.00, 0.000, 0.000, 0.000, 19:29:40.917
61, 0.00, 0.00, 413.15, 0.00, 0.000, 0.000, 0.000, 19:29:40.932
62, 0.00, 0.00, -293.27, 0.00, 0.000, 0.000, 0.000, 19:29:40.932
63, 0.00, 0.00, -476.59, 0.00, 0.000, 0.000, 0.000, 19:29:40.947
64, 0.00, 0.00, 343.55, 0.00, 0.000, 0.000, 0.000, 19:29:40.947
65, 0.00, 0.00, 65.11, 0.00, 0.000, 0.000, 0.000, 19:29:40.947
66, 0.00, 0.00, -584.57, 0.00, 0.000, 0.000, 0.000, 19:29:40.947
67, 0.00, 0.00, 77.35, 0.00, 0.000, 0.000, 0.000, 19:29:40.961
68, 0.00, 0.00, 264.74, 0.00, 0.000, 0.000, 0.000, 19:29:40.962
69, 0.00, 0.00, -485.56, 0.00, 0.000, 0.000, 0.000, 19:29:40.977
70, 0.00, 0.00, -196.90, 0.00, 0.000, 0.000, 0.000, 19:29:40.977
71, 0.00, 0.00, 424.30, 0.00, 0.000, 0.000, 0.000, 19:29:40.977
72, 0.00, 0.00, -305.66, 0.00, 0.000, 0.000, 0.000, 19:29:40.977
73, 0.00, 0.00, -471.89, 0.00, 0.000, 0.000, 0.000, 19:29:40.991
74, 0.00, 0.00, 329.73, 0.00, 0.000, 0.000, 0.000, 19:29:40.992
75, 0.00, 0.00, -10.09, 0.00, 0.000, 0.000, 0.000, 19:29:41.006
76, 0.00, 0.00, -558.12, 0.00, 0.000, 0.000, 0.000, 19:29:41.007
77, 0.00, 0.00, 145.10, 0.00, 0.000, 0.000, 0.000, 19:29:41.007
78, 0.00, 0.00, 344.04, 0.00, 0.000, 0.000, 0.000, 19:29:41.007
79, 0.00, 0.00, -470.20, 0.00, 0.000, 0.000, 0.000, 19:29:41.021
80, 0.00, 0.00, -167.35, 0.00, 0.000, 0.000, 0.000, 19:29:41.022
81, 0.00, 0.00, 434.76, 0.00, 0.000, 0.000, 0.000, 19:29:41.036
82, 0.00, 0.00, -290.21, 0.00, 0.000, 0.000, 0.000, 19:29:41.037
83, 0.00, 0.00, -427.19, 0.00, 0.000, 0.000, 0.000, 19:29:41.037
84, 0.00, 0.00, 358.12, 0.00, 0.000, 0.000, 0.000, 19:29:41.037
85, 0.00, 0.00, 46.19, 0.00, 0.000, 0.000, 0.000, 19:29:41.052
86, 0.00, 0.00, -606.85, 0.00, 0.000, 0.000, 0.000, 19:29:41.052
87, 0.00, 0.00, 116.18, 0.00, 0.000, 0.000, 0.000, 19:29:41.067
88, 0.00, 0.00, 272.00, 0.00, 0.000, 0.000, 0.000, 19:29:41.067
89, 0.00, 0.00, -543.80, 0.00, 0.000, 0.000, 0.000, 19:29:41.067
90, 0.00, 0.00, -224.67, 0.00, 0.000, 0.000, 0.000, 19:29:41.067
91, 0.00, 0.00, 393.36, 0.00, 0.000, 0.000, 0.000, 19:29:41.082
92, 0.00, 0.00, -310.63, 0.00, 0.000, 0.000, 0.000, 19:29:41.082
93, 0.00, 0.00, -466.83, 0.00, 0.000, 0.000, 0.000, 19:29:41.096
94, 0.00, 0.00, 312.82, 0.00, 0.000, 0.000, 0.000, 19:29:41.097
95, 0.00, 0.00, -0.56, 0.00, 0.000, 0.000, 0.000, 19:29:41.097
96, 0.00, 0.00, -585.38, 0.00, 0.000, 0.000, 0.000, 19:29:41.097
97, 0.00, 0.00, 117.57, 0.00, 0.000, 0.000, 0.000, 19:29:41.112
98, 0.00, 0.00, 287.51, 0.00, 0.000, 0.000, 0.000, 19:29:41.112
99, 0.00, 0.00, -540.77, 0.00, 0.000, 0.000, 0.000, 19:29:41.126
100, 0.00, 0.00, -224.91, 0.00, 0.000, 0.000, 0.000, 19:29:41.127
101, 0.00, 0.00, 436.67, 0.00, 0.000, 0.000, 0.000, 19:29:41.127
102, 0.00, 0.00, -287.63, 0.00, 0.000, 0.000, 0.000, 19:29:41.127
103, 0.00, 0.00, -466.57, 0.00, 0.000, 0.000, 0.000, 19:29:41.141
104, 0.00, 0.00, 352.29, 0.00, 0.000, 0.000, 0.000, 19:29:41.142
105, 0.00, 0.00, -2.26, 0.00, 0.000, 0.000, 0.000, 19:29:41.156
106, 0.00, 0.00, -555.34, 0.00, 0.000, 0.000, 0.000, 19:29:41.157
107, 0.00, 0.00, 156.66, 0.00, 0.000, 0.000, 0.000, 19:29:41.157
108, 0.00, 0.00, 447.92, 0.00, 0.000, 0.000, 0.000, 19:29:41.157
109, 0.00, 0.00, -309.46, 0.00, 0.000, 0.000, 0.000, 19:29:41.172
110, 0.00, 0.00, 104.24, 0.00, 0.000, 0.000, 0.000, 19:29:41.172
111, 0.00, 0.00, 690.38, 0.00, 0.000, 0.000, 0.000, 19:29:41.187
112, 0.00, 0.00, -73.50, 0.00, 0.000, 0.000, 0.000, 19:29:41.187
113, 0.00, 0.00, -297.79, 0.00, 0.000, 0.000, 0.000, 19:29:41.187
114, 0.00, 0.00, 257.82, 0.00, 0.000, 0.000, 0.000, 19:29:41.187
115, 0.00, 0.00, -316.84, 0.00, 0.000, 0.000, 0.000, 19:29:41.202
116, 0.00, 0.00, -777.30, 0.00, 0.000, 0.000, 0.000, 19:29:41.202
117, 0.00, 0.00, -5.36, 0.00, 0.000, 0.000, 0.000, 19:29:41.216
118, 0.00, 0.00, 300.15, 0.00, 0.000, 0.000, 0.000, 19:29:41.217
119, 0.00, 0.00, -579.98, 0.00, 0.000, 0.000, 0.000, 19:29:41.217
120, 0.00, 0.00, -290.05, 0.00, 0.000, 0.000, 0.000, 19:29:41.217
121, 0.00, 0.00, 327.39, 0.00, 0.000, 0.000, 0.000, 19:29:41.232
122, 0.00, 0.00, -259.52, 0.00, 0.000, 0.000, 0.000, 19:29:41.232
123, 0.00, 0.00, -485.38, 0.00, 0.000, 0.000, 0.000, 19:29:41.246
124, 0.00, 0.00, 246.44, 0.00, 0.000, 0.000, 0.000, 19:29:41.247
125, 0.00, 0.00, 16.93, 0.00, 0.000, 0.000, 0.000, 19:29:41.247
126, 0.00, 0.00, -625.66, 0.00, 0.000, 0.000, 0.000, 19:29:41.247
127, 0.00, 0.00, 124.65, 0.00, 0.000, 0.000, 0.000, 19:29:41.262
128, 0.00, 0.00, 254.26, 0.00, 0.000, 0.000, 0.000, 19:29:41.262
129, 0.00, 0.00, -506.42, 0.00, 0.000, 0.000, 0.000, 19:29:41.276
130, 0.00, 0.00, -272.96, 0.00, 0.000, 0.000, 0.000, 19:29:41.277
131, 0.00, 0.00, 411.05, 0.00, 0.000, 0.000, 0.000, 19:29:41.277
132, 0.00, 0.00, -249.30, 0.00, 0.000, 0.000, 0.000, 19:29:41.277
133, 0.00, 0.00, -519.48, 0.00, 0.000, 0.000, 0.000, 19:29:41.292
134, 0.00, 0.00, 313.73, 0.00, 0.000, 0.000, 0.000, 19:29:41.292
135, 0.00, 0.00, 86.54, 0.00, 0.000, 0.000, 0.000, 19:29:41.307
136, 0.00, 0.00, -579.69, 0.00, 0.000, 0.000, 0.000, 19:29:41.307
137, 0.00, 0.00, 55.73, 0.00, 0.000, 0.000, 0.000, 19:29:41.307
138, 0.00, 0.00, 397.45, 0.00, 0.000, 0.000, 0.000, 19:29:41.307
139, 0.00, 0.00, -516.91, 0.00, 0.000, 0.000, 0.000, 19:29:41.321
140, 0.00, 0.00, -228.75, 0.00, 0.000, 0.000, 0.000, 19:29:41.322
141, 0.00, 0.00, 338.53, 0.00, 0.000, 0.000, 0.000, 19:29:41.337
142, 0.00, 0.00, -223.31, 0.00, 0.000, 0.000, 0.000, 19:29:41.337
143, 0.00, 0.00, -467.06, 0.00, 0.000, 0.000, 0.000, 19:29:41.337
144, 0.00, 0.00, 396.89, 0.00, 0.000, 0.000, 0.000, 19:29:41.337
145, 0.00, 0.00, 48.48, 0.00, 0.000, 0.000, 0.000, 19:29:41.351
146, 0.00, 0.00, -599.04, 0.00, 0.000, 0.000, 0.000, 19:29:41.352
147, 0.00, 0.00, 91.93, 0.00, 0.000, 0.000, 0.000, 19:29:41.367
148, 0.00, 0.00, 323.34, 0.00, 0.000, 0.000, 0.000, 19:29:41.367
149, 0.00, 0.00, -462.69, 0.00, 0.000, 0.000, 0.000, 19:29:41.367
150, 0.00, 0.00, -176.61, 0.00, 0.000, 0.000, 0.000, 19:29:41.367
151, 0.00, 0.00, 409.21, 0.00, 0.000, 0.000, 0.000, 19:29:41.381
152, 0.00, 0.00, -207.23, 0.00, 0.000, 0.000, 0.000, 19:29:41.382
153, 0.00, 0.00, -449.83, 0.00, 0.000, 0.000, 0.000, 19:29:41.396
154, 0.00, 0.00, 385.91, 0.00, 0.000, 0.000, 0.000, 19:29:41.397
155, 0.00, 0.00, 158.07, 0.00, 0.000, 0.000, 0.000, 19:29:41.397
156, 0.00, 0.00, -600.83, 0.00, 0.000, 0.000, 0.000, 19:29:41.397
157, 0.00, 0.00, 155.33, 0.00, 0.000, 0.000, 0.000, 19:29:41.411
158, 0.00, 0.00, 320.06, 0.00, 0.000, 0.000, 0.000, 19:29:41.412
159, 0.00, 0.00, -460.56, 0.00, 0.000, 0.000, 0.000, 19:29:41.426
160, 0.00, 0.00, -169.67, 0.00, 0.000, 0.000, 0.000, 19:29:41.426
161, 0.00, 0.00, 497.10, 0.00, 0.000, 0.000, 0.000, 19:29:41.427
162, 0.00, 0.00, -193.66, 0.00, 0.000, 0.000, 0.000, 19:29:41.427
163, 0.00, 0.00, -466.07, 0.00, 0.000, 0.000, 0.000, 19:29:41.442
164, 0.00, 0.00, 424.07, 0.00, 0.000, 0.000, 0.000, 19:29:41.442
165, 0.00, 0.00, 61.64, 0.00, 0.000, 0.000, 0.000, 19:29:41.456
166, 0.00, 0.00, -603.11, 0.00, 0.000, 0.000, 0.000, 19:29:41.457
167, 0.00, 0.00, 96.87, 0.00, 0.000, 0.000, 0.000, 19:29:41.457
168, 0.00, 0.00, 350.41, 0.00, 0.000, 0.000, 0.000, 19:29:41.457
169, 0.00, 0.00, -554.49, 0.00, 0.000, 0.000, 0.000, 19:29:41.472
170, 0.00, 0.00, -223.47, 0.00, 0.000, 0.000, 0.000, 19:29:41.472
171, 0.00, 0.00, 454.00, 0.00, 0.000, 0.000, 0.000, 19:29:41.486
172, 0.00, 0.00, -373.67, 0.00, 0.000, 0.000, 0.000, 19:29:41.487
173, 0.00, 0.00, -543.71, 0.00, 0.000, 0.000, 0.000, 19:29:41.487
174, 0.00, 0.00, 312.38, 0.00, 0.000, 0.000, 0.000, 19:29:41.487
175, 0.00, 0.00, -34.45, 0.00, 0.000, 0.000, 0.000, 19:29:41.502
176, 0.00, 0.00, -617.91, 0.00, 0.000, 0.000, 0.000, 19:29:41.502
177, 0.00, 0.00, -64.59, 0.00, 0.000, 0.000, 0.000, 19:29:41.516
178, 0.00, 0.00, 280.90, 0.00, 0.000, 0.000, 0.000, 19:29:41.517
179, 0.00, 0.00, -502.80, 0.00, 0.000, 0.000, 0.000, 19:29:41.517
180, 0.00, 0.00, -326.32, 0.00, 0.000, 0.000, 0.000, 19:29:41.517
181, 0.00, 0.00, 408.46, 0.00, 0.000, 0.000, 0.000, 19:29:41.531
182, 0.00, 0.00, -234.95, 0.00, 0.000, 0.000, 0.000, 19:29:41.532
183, 0.00, 0.00, -572.88, 0.00, 0.000, 0.000, 0.000, 19:29:41.547
184, 0.00, 0.00, 250.80, 0.00, 0.000, 0.000, 0.000, 19:29:41.547
185, 0.00, 0.00, 31.99, 0.00, 0.000, 0.000, 0.000, 19:29:41.547
186, 0.00, 0.00, -586.13, 0.00, 0.000, 0.000, 0.000, 19:29:41.548
187, 0.00, 0.00, 69.26, 0.00, 0.000, 0.000, 0.000, 19:29:41.561
188, 0.00, 0.00, 283.89, 0.00, 0.000, 0.000, 0.000, 19:29:41.562
189, 0.00, 0.00, -519.32, 0.00, 0.000, 0.000, 0.000, 19:29:41.577
190, 0.00, 0.00, -208.04, 0.00, 0.000, 0.000, 0.000, 19:29:41.577
191, 0.00, 0.00, 420.28, 0.00, 0.000, 0.000, 0.000, 19:29:41.577
192, 0.00, 0.00, -195.68, 0.00, 0.000, 0.000, 0.000, 19:29:41.577
193, 0.00, 0.00, -556.77, 0.00, 0.000, 0.000, 0.000, 19:29:41.592
194, 0.00, 0.00, 371.19, 0.00, 0.000, 0.000, 0.000, 19:29:41.592
195, 0.00, 0.00, 72.60, 0.00, 0.000, 0.000, 0.000, 19:29:41.606
196, 0.00, 0.00, -626.15, 0.00, 0.000, 0.000, 0.000, 19:29:41.607
197, 0.00, 0.00, 58.16, 0.00, 0.000, 0.000, 0.000, 19:29:41.607
198, 0.00, 0.00, 340.80, 0.00, 0.000, 0.000, 0.000, 19:29:41.607
199, 0.00, 0.00, -456.80, 0.00, 0.000, 0.000, 0.000, 19:29:41.621
200, 0.00, 0.00, -269.82, 0.00, 0.000, 0.000, 0.000, 19:29:41.622
0, 0.00, 0.00, 409.85, 0.00, 0.000, 0.000, 0.000, 19:29:41.622
1, 0.00, 0.00, -215.16, 0.00, 0.000, 0.000, 0.000, 19:29:41.637
2, 0.00, 0.00, -440.09, 0.00, 0.000, 0.000, 0.000, 19:29:41.637
3, 0.00, 0.00, 300.12, 0.00, 0.000, 0.000, 0.000, 19:29:41.652
4, 0.00, 0.00, 64.83, 0.00, 0.000, 0.000, 0.000, 19:29:41.652
5, 0.00, 0.00, -569.89, 0.00, 0.000, 0.000, 0.000, 19:29:41.652
6, 0.00, 0.00, 8.04, 0.00, 0.000, 0.000, 0.000, 19:29:41.653
7, 0.00, 0.00, 376.10, 0.00, 0.000, 0.000, 0.000, 19:29:41.667
8, 0.00, 0.00, -462.17, 0.00, 0.000, 0.000, 0.000, 19:29:41.667
9, 0.00, 0.00, -258.24, 0.00, 0.000, 0.000, 0.000, 19:29:41.681
10, 0.00, 0.00, 424.53, 0.00, 0.000, 0.000, 0.000, 19:29:41.682
11, 0.00, 0.00, -210.80, 0.00, 0.000, 0.000, 0.000, 19:29:41.682
12, 0.00, 0.00, -523.48, 0.00, 0.000, 0.000, 0.000, 19:29:41.682
13, 0.00, 0.00, 308.47, 0.00, 0.000, 0.000, 0.000, 19:29:41.696
14, 0.00, 0.00, 123.12, 0.00, 0.000, 0.000, 0.000, 19:29:41.697
15, 0.00, 0.00, -647.33, 0.00, 0.000, 0.000, 0.000, 19:29:41.711
16, 0.00, 0.00, 57.00, 0.00, 0.000, 0.000, 0.000, 19:29:41.712
17, 0.00, 0.00, 314.19, 0.00, 0.000, 0.000, 0.000, 19:29:41.712
18, 0.00, 0.00, -509.88, 0.00, 0.000, 0.000, 0.000, 19:29:41.712
19, 0.00, 0.00, -237.74, 0.00, 0.000, 0.000, 0.000, 19:29:41.727
20, 0.00, 0.00, 407.05, 0.00, 0.000, 0.000, 0.000, 19:29:41.727
21, 0.00, 0.00, -193.26, 0.00, 0.000, 0.000, 0.000, 19:29:41.742
22, 0.00, 0.00, -476.57, 0.00, 0.000, 0.000, 0.000, 19:29:41.742
23, 0.00, 0.00, 298.06, 0.00, 0.000, 0.000, 0.000, 19:29:41.742
24, 0.00, 0.00, 87.83, 0.00, 0.000, 0.000, 0.000, 19:29:41.742
25, 0.00, 0.00, -583.68, 0.00, 0.000, 0.000, 0.000, 19:29:41.757
26, 0.00, 0.00, 6.38, 0.00, 0.000, 0.000, 0.000, 19:29:41.757
27, 0.00, 0.00, 351.51, 0.00, 0.000, 0.000, 0.000, 19:29:41.771
28, 0.00, 0.00, -502.58, 0.00, 0.000, 0.000, 0.000, 19:29:41.772
29, 0.00, 0.00, -269.54, 0.00, 0.000, 0.000, 0.000, 19:29:41.772
30, 0.00, 0.00, 462.72, 0.00, 0.000, 0.000, 0.000, 19:29:41.772
31, 0.00, 0.00, -228.90, 0.00, 0.000, 0.000, 0.000, 19:29:41.786
32, 0.00, 0.00, -492.95, 0.00, 0.000, 0.000, 0.000, 19:29:41.787
33, 0.00, 0.00, 260.64, 0.00, 0.000, 0.000, 0.000, 19:29:41.802
34, 0.00, 0.00, 53.38, 0.00, 0.000, 0.000, 0.000, 19:29:41.802
35, 0.00, 0.00, -564.41, 0.00, 0.000, 0.000, 0.000, 19:29:41.802
36, 0.00, 0.00, -15.20, 0.00, 0.000, 0.000, 0.000, 19:29:41.802
37, 0.00, 0.00, 371.55, 0.00, 0.000, 0.000, 0.000, 19:29:41.816
38, 0.00, 0.00, -448.37, 0.00, 0.000, 0.000, 0.000, 19:29:41.817
39, 0.00, 0.00, -243.77, 0.00, 0.000, 0.000, 0.000, 19:29:41.832
40, 0.00, 0.00, 424.53, 0.00, 0.000, 0.000, 0.000, 19:29:41.832
41, 0.00, 0.00, -204.93, 0.00, 0.000, 0.000, 0.000, 19:29:41.832
42, 0.00, 0.00, -509.39, 0.00, 0.000, 0.000, 0.000, 19:29:41.833
43, 0.00, 0.00, 356.57, 0.00, 0.000, 0.000, 0.000, 19:29:41.847
44, 0.00, 0.00, 18.51, 0.00, 0.000, 0.000, 0.000, 19:29:41.847
45, 0.00, 0.00, -564.62, 0.00, 0.000, 0.000, 0.000, 19:29:41.862
46, 0.00, 0.00, 18.29, 0.00, 0.000, 0.000, 0.000, 19:29:41.862
47, 0.00, 0.00, 272.38, 0.00, 0.000, 0.000, 0.000, 19:29:41.862
48, 0.00, 0.00, -457.58, 0.00, 0.000, 0.000, 0.000, 19:29:41.862
49, 0.00, 0.00, -233.02, 0.00, 0.000, 0.000, 0.000, 19:29:41.877
50, 0.00, 0.00, 399.17, 0.00, 0.000, 0.000, 0.000, 19:29:41.877
51, 0.00, 0.00, -204.18, 0.00, 0.000, 0.000, 0.000, 19:29:41.891
52, 0.00, 0.00, -527.05, 0.00, 0.000, 0.000, 0.000, 19:29:41.892
53, 0.00, 0.00, 339.01, 0.00, 0.000, 0.000, 0.000, 19:29:41.892
54, 0.00, 0.00, 50.67, 0.00, 0.000, 0.000, 0.000, 19:29:41.892
55, 0.00, 0.00, -575.46, 0.00, 0.000, 0.000, 0.000, 19:29:41.907
56, 0.00, 0.00, 81.53, 0.00, 0.000, 0.000, 0.000, 19:29:41.907
57, 0.00, 0.00, 339.19, 0.00, 0.000, 0.000, 0.000, 19:29:41.922
58, 0.00, 0.00, -488.59, 0.00, 0.000, 0.000, 0.000, 19:29:41.922
59, 0.00, 0.00, -298.10, 0.00, 0.000, 0.000, 0.000, 19:29:41.922
60, 0.00, 0.00, 452.41, 0.00, 0.000, 0.000, 0.000, 19:29:41.922
61, 0.00, 0.00, -195.13, 0.00, 0.000, 0.000, 0.000, 19:29:41.937
62, 0.00, 0.00, -417.40, 0.00, 0.000, 0.000, 0.000, 19:29:41.937
63, 0.00, 0.00, 180.56, 0.00, 0.000, 0.000, 0.000, 19:29:41.951
64, 0.00, 0.00, 158.74, 0.00, 0.000, 0.000, 0.000, 19:29:41.952
65, 0.00, 0.00, -616.26, 0.00, 0.000, 0.000, 0.000, 19:29:41.952
66, 0.00, 0.00, 96.70, 0.00, 0.000, 0.000, 0.000, 19:29:41.952
67, 0.00, 0.00, 419.68, 0.00, 0.000, 0.000, 0.000, 19:29:41.966
68, 0.00, 0.00, -404.45, 0.00, 0.000, 0.000, 0.000, 19:29:41.966
69, 0.00, 0.00, -310.74, 0.00, 0.000, 0.000, 0.000, 19:29:41.982
70, 0.00, 0.00, 418.26, 0.00, 0.000, 0.000, 0.000, 19:29:41.982
71, 0.00, 0.00, -214.67, 0.00, 0.000, 0.000, 0.000, 19:29:41.982
72, 0.00, 0.00, -505.87, 0.00, 0.000, 0.000, 0.000, 19:29:41.982
73, 0.00, 0.00, 261.47, 0.00, 0.000, 0.000, 0.000, 19:29:41.996
74, 0.00, 0.00, 80.88, 0.00, 0.000, 0.000, 0.000, 19:29:41.997
75, 0.00, 0.00, -644.61, 0.00, 0.000, 0.000, 0.000, 19:29:42.012
76, 0.00, 0.00, 47.20, 0.00, 0.000, 0.000, 0.000, 19:29:42.012
77, 0.00, 0.00, 336.91, 0.00, 0.000, 0.000, 0.000, 19:29:42.012
78, 0.00, 0.00, -456.88, 0.00, 0.000, 0.000, 0.000, 19:29:42.012
79, 0.00, 0.00, -302.76, 0.00, 0.000, 0.000, 0.000, 19:29:42.027
80, 0.00, 0.00, 383.76, 0.00, 0.000, 0.000, 0.000, 19:29:42.027
81, 0.00, 0.00, -204.21, 0.00, 0.000, 0.000, 0.000, 19:29:42.042
82, 0.00, 0.00, -546.86, 0.00, 0.000, 0.000, 0.000, 19:29:42.042
83, 0.00, 0.00, 240.61, 0.00, 0.000, 0.000, 0.000, 19:29:42.042
84, 0.00, 0.00, 135.63, 0.00, 0.000, 0.000, 0.000, 19:29:42.042
85, 0.00, 0.00, -587.64, 0.00, 0.000, 0.000, 0.000, 19:29:42.056
86, 0.00, 0.00, -60.41, 0.00, 0.000, 0.000, 0.000, 19:29:42.057
87, 0.00, 0.00, 365.47, 0.00, 0.000, 0.000, 0.000, 19:29:42.072
88, 0.00, 0.00, -476.92, 0.00, 0.000, 0.000, 0.000, 19:29:42.072
89, 0.00, 0.00, -302.60, 0.00, 0.000, 0.000, 0.000, 19:29:42.072
90, 0.00, 0.00, 452.95, 0.00, 0.000, 0.000, 0.000, 19:29:42.072
91, 0.00, 0.00, -145.28, 0.00, 0.000, 0.000, 0.000, 19:29:42.087
92, 0.00, 0.00, -479.32, 0.00, 0.000, 0.000, 0.000, 19:29:42.087
93, 0.00, 0.00, 416.04, 0.00, 0.000, 0.000, 0.000, 19:29:42.101
94, 0.00, 0.00, 397.37, 0.00, 0.000, 0.000, 0.000, 19:29:42.102
95, 0.00, 0.00, -214.49, 0.00, 0.000, 0.000, 0.000, 19:29:42.102
96, 0.00, 0.00, 194.96, 0.00, 0.000, 0.000, 0.000, 19:29:42.102
97, 0.00, 0.00, 590.02, 0.00, 0.000, 0.000, 0.000, 19:29:42.117
98, 0.00, 0.00, -326.45, 0.00, 0.000, 0.000, 0.000, 19:29:42.117
99, 0.00, 0.00, -405.48, 0.00, 0.000, 0.000, 0.000, 19:29:42.131
100, 0.00, 0.00, 163.74, 0.00, 0.000, 0.000, 0.000, 19:29:42.132
101, 0.00, 0.00, -437.05, 0.00, 0.000, 0.000, 0.000, 19:29:42.132
102, 0.00, 0.00, -598.87, 0.00, 0.000, 0.000, 0.000, 19:29:42.132
103, 0.00, 0.00, 212.01, 0.00, 0.000, 0.000, 0.000, 19:29:42.146
104, 0.00, 0.00, 65.06, 0.00, 0.000, 0.000, 0.000, 19:29:42.147
105, 0.00, 0.00, -636.08, 0.00, 0.000, 0.000, 0.000, 19:29:42.162
106, 0.00, 0.00, -72.80, 0.00, 0.000, 0.000, 0.000, 19:29:42.162
107, 0.00, 0.00, 282.47, 0.00, 0.000, 0.000, 0.000, 19:29:42.162
108, 0.00, 0.00, -472.14, 0.00, 0.000, 0.000, 0.000, 19:29:42.162
109, 0.00, 0.00, -331.79, 0.00, 0.000, 0.000, 0.000, 19:29:42.176
110, 0.00, 0.00, 339.04, 0.00, 0.000, 0.000, 0.000, 19:29:42.176
111, 0.00, 0.00, -232.90, 0.00, 0.000, 0.000, 0.000, 19:29:42.192
112, 0.00, 0.00, -517.45, 0.00, 0.000, 0.000, 0.000, 19:29:42.192
113, 0.00, 0.00, 273.87, 0.00, 0.000, 0.000, 0.000, 19:29:42.192
114, 0.00, 0.00, 94.87, 0.00, 0.000, 0.000, 0.000, 19:29:42.192
115, 0.00, 0.00, -574.82, 0.00, 0.000, 0.000, 0.000, 19:29:42.206
116, 0.00, 0.00, 11.87, 0.00, 0.000, 0.000, 0.000, 19:29:42.207
117, 0.00, 0.00, 328.93, 0.00, 0.000, 0.000, 0.000, 19:29:42.222
118, 0.00, 0.00, -467.95, 0.00, 0.000, 0.000, 0.000, 19:29:42.222
119, 0.00, 0.00, -272.56, 0.00, 0.000, 0.000, 0.000, 19:29:42.222
120, 0.00, 0.00, 432.39, 0.00, 0.000, 0.000, 0.000, 19:29:42.222
121, 0.00, 0.00, -188.91, 0.00, 0.000, 0.000, 0.000, 19:29:42.236
122, 0.00, 0.00, -504.86, 0.00, 0.000, 0.000, 0.000, 19:29:42.237
123, 0.00, 0.00, 279.12, 0.00, 0.000, 0.000, 0.000, 19:29:42.251
124, 0.00, 0.00, 129.22, 0.00, 0.000, 0.000, 0.000, 19:29:42.252
125, 0.00, 0.00, -624.47, 0.00, 0.000, 0.000, 0.000, 19:29:42.252
126, 0.00, 0.00, 59.30, 0.00, 0.000, 0.000, 0.000, 19:29:42.252
127, 0.00, 0.00, 304.08, 0.00, 0.000, 0.000, 0.000, 19:29:42.267
128, 0.00, 0.00, -471.20, 0.00, 0.000, 0.000, 0.000, 19:29:42.267
129, 0.00, 0.00, -296.50, 0.00, 0.000, 0.000, 0.000, 19:29:42.281
130, 0.00, 0.00, 446.56, 0.00, 0.000, 0.000, 0.000, 19:29:42.281
131, 0.00, 0.00, -146.66, 0.00, 0.000, 0.000, 0.000, 19:29:42.282
132, 0.00, 0.00, -495.87, 0.00, 0.000, 0.000, 0.000, 19:29:42.282
133, 0.00, 0.00, 268.20, 0.00, 0.000, 0.000, 0.000, 19:29:42.297
134, 0.00, 0.00, 145.27, 0.00, 0.000, 0.000, 0.000, 19:29:42.297
135, 0.00, 0.00, -508.20, 0.00, 0.000, 0.000, 0.000, 19:29:42.312
136, 0.00, 0.00, 9.62, 0.00, 0.000, 0.000, 0.000, 19:29:42.312
137, 0.00, 0.00, 434.06, 0.00, 0.000, 0.000, 0.000, 19:29:42.312
138, 0.00, 0.00, -429.40, 0.00, 0.000, 0.000, 0.000, 19:29:42.312
139, 0.00, 0.00, -269.96, 0.00, 0.000, 0.000, 0.000, 19:29:42.327
140, 0.00, 0.00, 477.39, 0.00, 0.000, 0.000, 0.000, 19:29:42.327
141, 0.00, 0.00, -189.60, 0.00, 0.000, 0.000, 0.000, 19:29:42.341
142, 0.00, 0.00, -376.43, 0.00, 0.000, 0.000, 0.000, 19:29:42.342
143, 0.00, 0.00, 288.76, 0.00, 0.000, 0.000, 0.000, 19:29:42.342
144, 0.00, 0.00, 151.10, 0.00, 0.000, 0.000, 0.000, 19:29:42.342
145, 0.00, 0.00, -572.20, 0.00, 0.000, 0.000, 0.000, 19:29:42.356
146, 0.00, 0.00, 66.38, 0.00, 0.000, 0.000, 0.000, 19:29:42.357
147, 0.00, 0.00, 416.00, 0.00, 0.000, 0.000, 0.000, 19:29:42.371
148, 0.00, 0.00, -392.53, 0.00, 0.000, 0.000, 0.000, 19:29:42.372
149, 0.00, 0.00, -263.26, 0.00, 0.000, 0.000, 0.000, 19:29:42.372
150, 0.00, 0.00, 517.82, 0.00, 0.000, 0.000, 0.000, 19:29:42.372
151, 0.00, 0.00, -210.49, 0.00, 0.000, 0.000, 0.000, 19:29:42.386
152, 0.00, 0.00, -535.33, 0.00, 0.000, 0.000, 0.000, 19:29:42.387
153, 0.00, 0.00, 268.54, 0.00, 0.000, 0.000, 0.000, 19:29:42.402
154, 0.00, 0.00, 115.30, 0.00, 0.000, 0.000, 0.000, 19:29:42.403
155, 0.00, 0.00, -603.37, 0.00, 0.000, 0.000, 0.000, 19:29:42.403
156, 0.00, 0.00, -29.46, 0.00, 0.000, 0.000, 0.000, 19:29:42.403
157, 0.00, 0.00, 311.03, 0.00, 0.000, 0.000, 0.000, 19:29:42.417
158, 0.00, 0.00, -520.10, 0.00, 0.000, 0.000, 0.000, 19:29:42.417
159, 0.00, 0.00, -327.09, 0.00, 0.000, 0.000, 0.000, 19:29:42.431
160, 0.00, 0.00, 344.77, 0.00, 0.000, 0.000, 0.000, 19:29:42.432
161, 0.00, 0.00, -232.96, 0.00, 0.000, 0.000, 0.000, 19:29:42.432
162, 0.00, 0.00, -602.02, 0.00, 0.000, 0.000, 0.000, 19:29:42.432
163, 0.00, 0.00, 234.06, 0.00, 0.000, 0.000, 0.000, 19:29:42.446
164, 0.00, 0.00, 80.68, 0.00, 0.000, 0.000, 0.000, 19:29:42.447
165, 0.00, 0.00, -635.68, 0.00, 0.000, 0.000, 0.000, 19:29:42.461
166, 0.00, 0.00, -66.76, 0.00, 0.000, 0.000, 0.000, 19:29:42.462
167, 0.00, 0.00, 320.76, 0.00, 0.000, 0.000, 0.000, 19:29:42.462
168, 0.00, 0.00, -410.30, 0.00, 0.000, 0.000, 0.000, 19:29:42.462
169, 0.00, 0.00, -316.59, 0.00, 0.000, 0.000, 0.000, 19:29:42.477
170, 0.00, 0.00, 409.86, 0.00, 0.000, 0.000, 0.000, 19:29:42.477
171, 0.00, 0.00, -264.51, 0.00, 0.000, 0.000, 0.000, 19:29:42.491
172, 0.00, 0.00, -556.33, 0.00, 0.000, 0.000, 0.000, 19:29:42.492
173, 0.00, 0.00, 305.84, 0.00, 0.000, 0.000, 0.000, 19:29:42.492
174, 0.00, 0.00, 99.31, 0.00, 0.000, 0.000, 0.000, 19:29:42.492
175, 0.00, 0.00, -620.29, 0.00, 0.000, 0.000, 0.000, 19:29:42.507
176, 0.00, 0.00, 32.13, 0.00, 0.000, 0.000, 0.000, 19:29:42.507
177, 0.00, 0.00, 351.77, 0.00, 0.000, 0.000, 0.000, 19:29:42.522
178, 0.00, 0.00, -536.25, 0.00, 0.000, 0.000, 0.000, 19:29:42.522
179, 0.00, 0.00, -239.53, 0.00, 0.000, 0.000, 0.000, 19:29:42.522
180, 0.00, 0.00, 398.98, 0.00, 0.000, 0.000, 0.000, 19:29:42.522
181, 0.00, 0.00, -193.82, 0.00, 0.000, 0.000, 0.000, 19:29:42.537
182, 0.00, 0.00, -545.67, 0.00, 0.000, 0.000, 0.000, 19:29:42.537
183, 0.00, 0.00, 285.63, 0.00, 0.000, 0.000, 0.000, 19:29:42.552
184, 0.00, 0.00, 182.60, 0.00, 0.000, 0.000, 0.000, 19:29:42.552
185, 0.00, 0.00, -608.89, 0.00, 0.000, 0.000, 0.000, 19:29:42.552
186, 0.00, 0.00, 37.44, 0.00, 0.000, 0.000, 0.000, 19:29:42.552
187, 0.00, 0.00, 406.38, 0.00, 0.000, 0.000, 0.000, 19:29:42.567
188, 0.00, 0.00, -473.73, 0.00, 0.000, 0.000, 0.000, 19:29:42.567
189, 0.00, 0.00, -327.57, 0.00, 0.000, 0.000, 0.000, 19:29:42.582
190, 0.00, 0.00, 400.93, 0.00, 0.000, 0.000, 0.000, 19:29:42.582
191, 0.00, 0.00, -154.99, 0.00, 0.000, 0.000, 0.000, 19:29:42.582
192, 0.00, 0.00, -529.11, 0.00, 0.000, 0.000, 0.000, 19:29:42.583
193, 0.00, 0.00, 311.87, 0.00, 0.000, 0.000, 0.000, 19:29:42.596
194, 0.00, 0.00, 112.58, 0.00, 0.000, 0.000, 0.000, 19:29:42.597
195, 0.00, 0.00, -568.37, 0.00, 0.000, 0.000, 0.000, 19:29:42.612
196, 0.00, 0.00, -2.98, 0.00, 0.000, 0.000, 0.000, 19:29:42.612
197, 0.00, 0.00, 348.57, 0.00, 0.000, 0.000, 0.000, 19:29:42.612
198, 0.00, 0.00, -489.52, 0.00, 0.000, 0.000, 0.000, 19:29:42.612
199, 0.00, 0.00, -311.70, 0.00, 0.000, 0.000, 0.000, 19:29:42.626
200, 0.00, 0.00, 421.57, 0.00, 0.000, 0.000, 0.000, 19:29:42.627
0, 0.00, 0.00, -142.87, 0.00, 0.000, 0.000, 0.000, 19:29:42.627
1, 0.00, 0.00, -548.60, 0.00, 0.000, 0.000, 0.000, 19:29:42.641
2, 0.00, 0.00, 270.43, 0.00, 0.000, 0.000, 0.000, 19:29:42.642
3, 0.00, 0.00, 166.09, 0.00, 0.000, 0.000, 0.000, 19:29:42.657
4, 0.00, 0.00, -604.13, 0.00, 0.000, 0.000, 0.000, 19:29:42.663
5, 0.00, 0.00, -21.52, 0.00, 0.000, 0.000, 0.000, 19:29:42.663
6, 0.00, 0.00, 325.75, 0.00, 0.000, 0.000, 0.000, 19:29:42.663
7, 0.00, 0.00, -471.61, 0.00, 0.000, 0.000, 0.000, 19:29:42.672
8, 0.00, 0.00, -342.66, 0.00, 0.000, 0.000, 0.000, 19:29:42.672
9, 0.00, 0.00, 431.35, 0.00, 0.000, 0.000, 0.000, 19:29:42.687
10, 0.00, 0.00, -201.76, 0.00, 0.000, 0.000, 0.000, 19:29:42.687
11, 0.00, 0.00, -505.55, 0.00, 0.000, 0.000, 0.000, 19:29:42.687
12, 0.00, 0.00, 278.65, 0.00, 0.000, 0.000, 0.000, 19:29:42.687
13, 0.00, 0.00, 183.56, 0.00, 0.000, 0.000, 0.000, 19:29:42.701
14, 0.00, 0.00, -637.71, 0.00, 0.000, 0.000, 0.000, 19:29:42.702
15, 0.00, 0.00, -10.29, 0.00, 0.000, 0.000, 0.000, 19:29:42.716
16, 0.00, 0.00, 384.08, 0.00, 0.000, 0.000, 0.000, 19:29:42.717
17, 0.00, 0.00, -453.75, 0.00, 0.000, 0.000, 0.000, 19:29:42.717
18, 0.00, 0.00, -299.28, 0.00, 0.000, 0.000, 0.000, 19:29:42.717
19, 0.00, 0.00, 408.39, 0.00, 0.000, 0.000, 0.000, 19:29:42.731
20, 0.00, 0.00, -184.22, 0.00, 0.000, 0.000, 0.000, 19:29:42.732
21, 0.00, 0.00, -539.94, 0.00, 0.000, 0.000, 0.000, 19:29:42.746
22, 0.00, 0.00, 251.49, 0.00, 0.000, 0.000, 0.000, 19:29:42.746
23, 0.00, 0.00, 118.69, 0.00, 0.000, 0.000, 0.000, 19:29:42.747
24, 0.00, 0.00, -543.04, 0.00, 0.000, 0.000, 0.000, 19:29:42.747
25, 0.00, 0.00, 30.83, 0.00, 0.000, 0.000, 0.000, 19:29:42.762
26, 0.00, 0.00, 307.33, 0.00, 0.000, 0.000, 0.000, 19:29:42.762
27, 0.00, 0.00, -432.49, 0.00, 0.000, 0.000, 0.000, 19:29:42.776
28, 0.00, 0.00, -352.19, 0.00, 0.000, 0.000, 0.000, 19:29:42.777
29, 0.00, 0.00, 401.74, 0.00, 0.000, 0.000, 0.000, 19:29:42.777
30, 0.00, 0.00, -144.57, 0.00, 0.000, 0.000, 0.000, 19:29:42.777
31, 0.00, 0.00, -513.48, 0.00, 0.000, 0.000, 0.000, 19:29:42.792
32, 0.00, 0.00, 239.06, 0.00, 0.000, 0.000, 0.000, 19:29:42.792
33, 0.00, 0.00, 204.52, 0.00, 0.000, 0.000, 0.000, 19:29:42.806
34, 0.00, 0.00, -615.21, 0.00, 0.000, 0.000, 0.000, 19:29:42.807
35, 0.00, 0.00, -15.32, 0.00, 0.000, 0.000, 0.000, 19:29:42.807
36, 0.00, 0.00, 386.10, 0.00, 0.000, 0.000, 0.000, 19:29:42.807
37, 0.00, 0.00, -435.94, 0.00, 0.000, 0.000, 0.000, 19:29:42.821
38, 0.00, 0.00, -373.24, 0.00, 0.000, 0.000, 0.000, 19:29:42.821
39, 0.00, 0.00, 482.48, 0.00, 0.000, 0.000, 0.000, 19:29:42.836
40, 0.00, 0.00, -226.27, 0.00, 0.000, 0.000, 0.000, 19:29:42.837
41, 0.00, 0.00, -427.56, 0.00, 0.000, 0.000, 0.000, 19:29:42.837
42, 0.00, 0.00, 261.51, 0.00, 0.000, 0.000, 0.000, 19:29:42.837
43, 0.00, 0.00, 61.88, 0.00, 0.000, 0.000, 0.000, 19:29:42.851
44, 0.00, 0.00, -586.98, 0.00, 0.000, 0.000, 0.000, 19:29:42.852
45, 0.00, 0.00, 36.09, 0.00, 0.000, 0.000, 0.000, 19:29:42.867
46, 0.00, 0.00, 402.00, 0.00, 0.000, 0.000, 0.000, 19:29:42.867
47, 0.00, 0.00, -313.17, 0.00, 0.000, 0.000, 0.000, 19:29:42.867
48, 0.00, 0.00, -294.85, 0.00, 0.000, 0.000, 0.000, 19:29:42.867
49, 0.00, 0.00, 399.10, 0.00, 0.000, 0.000, 0.000, 19:29:42.881
50, 0.00, 0.00, -107.97, 0.00, 0.000, 0.000, 0.000, 19:29:42.882
51, 0.00, 0.00, -565.31, 0.00, 0.000, 0.000, 0.000, 19:29:42.896
52, 0.00, 0.00, 256.79, 0.00, 0.000, 0.000, 0.000, 19:29:42.897
53, 0.00, 0.00, 104.82, 0.00, 0.000, 0.000, 0.000, 19:29:42.897
54, 0.00, 0.00, -607.17, 0.00, 0.000, 0.000, 0.000, 19:29:42.897
55, 0.00, 0.00, -67.43, 0.00, 0.000, 0.000, 0.000, 19:29:42.912
56, 0.00, 0.00, 346.23, 0.00, 0.000, 0.000, 0.000, 19:29:42.912
57, 0.00, 0.00, -424.90, 0.00, 0.000, 0.000, 0.000, 19:29:42.926
58, 0.00, 0.00, -349.07, 0.00, 0.000, 0.000, 0.000, 19:29:42.927
59, 0.00, 0.00, 399.94, 0.00, 0.000, 0.000, 0.000, 19:29:42.927
60, 0.00, 0.00, -189.82, 0.00, 0.000, 0.000, 0.000, 19:29:42.927
61, 0.00, 0.00, -586.51, 0.00, 0.000, 0.000, 0.000, 19:29:42.941
62, 0.00, 0.00, 279.38, 0.00, 0.000, 0.000, 0.000, 19:29:42.942
63, 0.00, 0.00, 145.07, 0.00, 0.000, 0.000, 0.000, 19:29:42.956
64, 0.00, 0.00, -598.20, 0.00, 0.000, 0.000, 0.000, 19:29:42.957
65, 0.00, 0.00, -48.87, 0.00, 0.000, 0.000, 0.000, 19:29:42.957
66, 0.00, 0.00, 333.50, 0.00, 0.000, 0.000, 0.000, 19:29:42.957
67, 0.00, 0.00, -394.16, 0.00, 0.000, 0.000, 0.000, 19:29:42.972
68, 0.00, 0.00, -349.50, 0.00, 0.000, 0.000, 0.000, 19:29:42.972
69, 0.00, 0.00, 423.16, 0.00, 0.000, 0.000, 0.000, 19:29:42.986
70, 0.00, 0.00, -182.31, 0.00, 0.000, 0.000, 0.000, 19:29:42.987
71, 0.00, 0.00, -507.41, 0.00, 0.000, 0.000, 0.000, 19:29:42.987
72, 0.00, 0.00, 321.13, 0.00, 0.000, 0.000, 0.000, 19:29:42.987
73, 0.00, 0.00, 328.22, 0.00, 0.000, 0.000, 0.000, 19:29:43.002
74, 0.00, 0.00, -289.13, 0.00, 0.000, 0.000, 0.000, 19:29:43.002
75, 0.00, 0.00, 248.59, 0.00, 0.000, 0.000, 0.000, 19:29:43.016
76, 0.00, 0.00, 644.63, 0.00, 0.000, 0.000, 0.000, 19:29:43.017
77, 0.00, 0.00, -278.28, 0.00, 0.000, 0.000, 0.000, 19:29:43.017
78, 0.00, 0.00, -258.41, 0.00, 0.000, 0.000, 0.000, 19:29:43.017
79, 0.00, 0.00, 319.63, 0.00, 0.000, 0.000, 0.000, 19:29:43.032
80, 0.00, 0.00, -486.42, 0.00, 0.000, 0.000, 0.000, 19:29:43.032
81, 0.00, 0.00, -713.27, 0.00, 0.000, 0.000, 0.000, 19:29:43.047
82, 0.00, 0.00, 202.05, 0.00, 0.000, 0.000, 0.000, 19:29:43.047
83, 0.00, 0.00, 66.25, 0.00, 0.000, 0.000, 0.000, 19:29:43.047
84, 0.00, 0.00, -645.59, 0.00, 0.000, 0.000, 0.000, 19:29:43.047
85, 0.00, 0.00, -104.48, 0.00, 0.000, 0.000, 0.000, 19:29:43.061
86, 0.00, 0.00, 389.57, 0.00, 0.000, 0.000, 0.000, 19:29:43.062
87, 0.00, 0.00, -512.47, 0.00, 0.000, 0.000, 0.000, 19:29:43.076
88, 0.00, 0.00, -362.33, 0.00, 0.000, 0.000, 0.000, 19:29:43.077
89, 0.00, 0.00, 373.47, 0.00, 0.000, 0.000, 0.000, 19:29:43.077
90, 0.00, 0.00, -218.90, 0.00, 0.000, 0.000, 0.000, 19:29:43.077
91, 0.00, 0.00, -614.08, 0.00, 0.000, 0.000, 0.000, 19:29:43.091
92, 0.00, 0.00, 273.31, 0.00, 0.000, 0.000, 0.000, 19:29:43.092
93, 0.00, 0.00, 161.83, 0.00, 0.000, 0.000, 0.000, 19:29:43.106
94, 0.00, 0.00, -623.06, 0.00, 0.000, 0.000, 0.000, 19:29:43.107
95, 0.00, 0.00, -57.74, 0.00, 0.000, 0.000, 0.000, 19:29:43.107
96, 0.00, 0.00, 415.65, 0.00, 0.000, 0.000, 0.000, 19:29:43.107
97, 0.00, 0.00, -462.13, 0.00, 0.000, 0.000, 0.000, 19:29:43.121
98, 0.00, 0.00, -303.94, 0.00, 0.000, 0.000, 0.000, 19:29:43.122
99, 0.00, 0.00, 410.34, 0.00, 0.000, 0.000, 0.000, 19:29:43.137
100, 0.00, 0.00, -167.44, 0.00, 0.000, 0.000, 0.000, 19:29:43.137
101, 0.00, 0.00, -590.16, 0.00, 0.000, 0.000, 0.000, 19:29:43.137
102, 0.00, 0.00, 325.97, 0.00, 0.000, 0.000, 0.000, 19:29:43.138
103, 0.00, 0.00, 209.09, 0.00, 0.000, 0.000, 0.000, 19:29:43.151
104, 0.00, 0.00, -570.41, 0.00, 0.000, 0.000, 0.000, 19:29:43.152
105, 0.00, 0.00, -79.23, 0.00, 0.000, 0.000, 0.000, 19:29:43.166
106, 0.00, 0.00, 318.55, 0.00, 0.000, 0.000, 0.000, 19:29:43.167
107, 0.00, 0.00, -384.00, 0.00, 0.000, 0.000, 0.000, 19:29:43.167
108, 0.00, 0.00, -325.36, 0.00, 0.000, 0.000, 0.000, 19:29:43.167
109, 0.00, 0.00, 401.03, 0.00, 0.000, 0.000, 0.000, 19:29:43.181
110, 0.00, 0.00, -43.17, 0.00, 0.000, 0.000, 0.000, 19:29:43.182
111, 0.00, 0.00, -568.75, 0.00, 0.000, 0.000, 0.000, 19:29:43.197
112, 0.00, 0.00, 222.56, 0.00, 0.000, 0.000, 0.000, 19:29:43.197
113, 0.00, 0.00, 190.96, 0.00, 0.000, 0.000, 0.000, 19:29:43.197
114, 0.00, 0.00, -551.03, 0.00, 0.000, 0.000, 0.000, 19:29:43.197
115, 0.00, 0.00, -4.94, 0.00, 0.000, 0.000, 0.000, 19:29:43.211
116, 0.00, 0.00, 478.08, 0.00, 0.000, 0.000, 0.000, 19:29:43.212
117, 0.00, 0.00, -403.60, 0.00, 0.000, 0.000, 0.000, 19:29:43.226
118, 0.00, 0.00, -345.63, 0.00, 0.000, 0.000, 0.000, 19:29:43.227
119, 0.00, 0.00, 481.10, 0.00, 0.000, 0.000, 0.000, 19:29:43.227
120, 0.00, 0.00, -85.55, 0.00, 0.000, 0.000, 0.000, 19:29:43.227
121, 0.00, 0.00, -503.03, 0.00, 0.000, 0.000, 0.000, 19:29:43.242
122, 0.00, 0.00, 258.95, 0.00, 0.000, 0.000, 0.000, 19:29:43.242
123, 0.00, 0.00, 228.53, 0.00, 0.000, 0.000, 0.000, 19:29:43.256
124, 0.00, 0.00, -540.08, 0.00, 0.000, 0.000, 0.000, 19:29:43.257
125, 0.00, 0.00, 29.75, 0.00, 0.000, 0.000, 0.000, 19:29:43.257
126, 0.00, 0.00, 432.31, 0.00, 0.000, 0.000, 0.000, 19:29:43.257
127, 0.00, 0.00, -343.79, 0.00, 0.000, 0.000, 0.000, 19:29:43.271
128, 0.00, 0.00, -342.40, 0.00, 0.000, 0.000, 0.000, 19:29:43.272
129, 0.00, 0.00, 395.80, 0.00, 0.000, 0.000, 0.000, 19:29:43.286
130, 0.00, 0.00, -39.04, 0.00, 0.000, 0.000, 0.000, 19:29:43.287
131, 0.00, 0.00, -511.85, 0.00, 0.000, 0.000, 0.000, 19:29:43.287
132, 0.00, 0.00, 221.65, 0.00, 0.000, 0.000, 0.000, 19:29:43.287
133, 0.00, 0.00, 161.68, 0.00, 0.000, 0.000, 0.000, 19:29:43.301
134, 0.00, 0.00, -543.97, 0.00, 0.000, 0.000, 0.000, 19:29:43.302
135, 0.00, 0.00, -48.41, 0.00, 0.000, 0.000, 0.000, 19:29:43.317
136, 0.00, 0.00, 309.28, 0.00, 0.000, 0.000, 0.000, 19:29:43.317
137, 0.00, 0.00, -403.31, 0.00, 0.000, 0.000, 0.000, 19:29:43.317
138, 0.00, 0.00, -469.32, 0.00, 0.000, 0.000, 0.000, 19:29:43.317
139, 0.00, 0.00, 325.40, 0.00, 0.000, 0.000, 0.000, 19:29:43.331
140, 0.00, 0.00, -157.36, 0.00, 0.000, 0.000, 0.000, 19:29:43.332
141, 0.00, 0.00, -679.10, 0.00, 0.000, 0.000, 0.000, 19:29:43.346
142, 0.00, 0.00, 229.54, 0.00, 0.000, 0.000, 0.000, 19:29:43.347
143, 0.00, 0.00, 136.17, 0.00, 0.000, 0.000, 0.000, 19:29:43.347
144, 0.00, 0.00, -600.53, 0.00, 0.000, 0.000, 0.000, 19:29:43.347
145, 0.00, 0.00, -127.70, 0.00, 0.000, 0.000, 0.000, 19:29:43.361
146, 0.00, 0.00, 363.02, 0.00, 0.000, 0.000, 0.000, 19:29:43.362
147, 0.00, 0.00, -426.63, 0.00, 0.000, 0.000, 0.000, 19:29:43.376
148, 0.00, 0.00, -382.97, 0.00, 0.000, 0.000, 0.000, 19:29:43.377
149, 0.00, 0.00, 346.18, 0.00, 0.000, 0.000, 0.000, 19:29:43.377
150, 0.00, 0.00, -162.75, 0.00, 0.000, 0.000, 0.000, 19:29:43.377
151, 0.00, 0.00, -524.51, 0.00, 0.000, 0.000, 0.000, 19:29:43.392
152, 0.00, 0.00, 168.55, 0.00, 0.000, 0.000, 0.000, 19:29:43.392
153, 0.00, 0.00, 223.51, 0.00, 0.000, 0.000, 0.000, 19:29:43.406
154, 0.00, 0.00, -621.19, 0.00, 0.000, 0.000, 0.000, 19:29:43.407
155, 0.00, 0.00, -80.52, 0.00, 0.000, 0.000, 0.000, 19:29:43.407
156, 0.00, 0.00, 412.44, 0.00, 0.000, 0.000, 0.000, 19:29:43.407
157, 0.00, 0.00, -426.00, 0.00, 0.000, 0.000, 0.000, 19:29:43.422
158, 0.00, 0.00, -370.99, 0.00, 0.000, 0.000, 0.000, 19:29:43.422
159, 0.00, 0.00, 345.70, 0.00, 0.000, 0.000, 0.000, 19:29:43.436
160, 0.00, 0.00, -122.89, 0.00, 0.000, 0.000, 0.000, 19:29:43.437
161, 0.00, 0.00, -527.51, 0.00, 0.000, 0.000, 0.000, 19:29:43.437
162, 0.00, 0.00, 211.78, 0.00, 0.000, 0.000, 0.000, 19:29:43.437
163, 0.00, 0.00, 215.35, 0.00, 0.000, 0.000, 0.000, 19:29:43.451
164, 0.00, 0.00, -526.88, 0.00, 0.000, 0.000, 0.000, 19:29:43.451
165, 0.00, 0.00, -53.87, 0.00, 0.000, 0.000, 0.000, 19:29:43.466
166, 0.00, 0.00, 348.72, 0.00, 0.000, 0.000, 0.000, 19:29:43.467
167, 0.00, 0.00, -424.94, 0.00, 0.000, 0.000, 0.000, 19:29:43.467
168, 0.00, 0.00, -277.30, 0.00, 0.000, 0.000, 0.000, 19:29:43.467
169, 0.00, 0.00, 417.48, 0.00, 0.000, 0.000, 0.000, 19:29:43.481
170, 0.00, 0.00, -121.38, 0.00, 0.000, 0.000, 0.000, 19:29:43.481
171, 0.00, 0.00, -602.99, 0.00, 0.000, 0.000, 0.000, 19:29:43.497
172, 0.00, 0.00, 210.07, 0.00, 0.000, 0.000, 0.000, 19:29:43.497
173, 0.00, 0.00, 241.55, 0.00, 0.000, 0.000, 0.000, 19:29:43.497
174, 0.00, 0.00, -657.50, 0.00, 0.000, 0.000, 0.000, 19:29:43.497
175, 0.00, 0.00, -8.88, 0.00, 0.000, 0.000, 0.000, 19:29:43.511
176, 0.00, 0.00, 395.41, 0.00, 0.000, 0.000, 0.000, 19:29:43.512
177, 0.00, 0.00, -396.66, 0.00, 0.000, 0.000, 0.000, 19:29:43.527
178, 0.00, 0.00, -397.17, 0.00, 0.000, 0.000, 0.000, 19:29:43.527
179, 0.00, 0.00, 482.45, 0.00, 0.000, 0.000, 0.000, 19:29:43.527
180, 0.00, 0.00, -172.63, 0.00, 0.000, 0.000, 0.000, 19:29:43.527
181, 0.00, 0.00, -627.96, 0.00, 0.000, 0.000, 0.000, 19:29:43.541
182, 0.00, 0.00, 250.69, 0.00, 0.000, 0.000, 0.000, 19:29:43.542
183, 0.00, 0.00, 247.25, 0.00, 0.000, 0.000, 0.000, 19:29:43.556
184, 0.00, 0.00, -600.34, 0.00, 0.000, 0.000, 0.000, 19:29:43.557
185, 0.00, 0.00, -56.48, 0.00, 0.000, 0.000, 0.000, 19:29:43.557
186, 0.00, 0.00, 430.73, 0.00, 0.000, 0.000, 0.000, 19:29:43.557
187, 0.00, 0.00, -464.98, 0.00, 0.000, 0.000, 0.000, 19:29:43.572
188, 0.00, 0.00, -382.63, 0.00, 0.000, 0.000, 0.000, 19:29:43.572
189, 0.00, 0.00, 367.87, 0.00, 0.000, 0.000, 0.000, 19:29:43.586
190, 0.00, 0.00, -117.61, 0.00, 0.000, 0.000, 0.000, 19:29:43.587
191, 0.00, 0.00, -551.35, 0.00, 0.000, 0.000, 0.000, 19:29:43.587
192, 0.00, 0.00, 283.59, 0.00, 0.000, 0.000, 0.000, 19:29:43.587
193, 0.00, 0.00, 190.04, 0.00, 0.000, 0.000, 0.000, 19:29:43.602
194, 0.00, 0.00, -586.76, 0.00, 0.000, 0.000, 0.000, 19:29:43.602
195, 0.00, 0.00, -87.09, 0.00, 0.000, 0.000, 0.000, 19:29:43.616
196, 0.00, 0.00, 452.92, 0.00, 0.000, 0.000, 0.000, 19:29:43.617
197, 0.00, 0.00, -482.44, 0.00, 0.000, 0.000, 0.000, 19:29:43.617
198, 0.00, 0.00, -352.60, 0.00, 0.000, 0.000, 0.000, 19:29:43.617
199, 0.00, 0.00, 472.61, 0.00, 0.000, 0.000, 0.000, 19:29:43.632
200, 0.00, 0.00, -133.93, 0.00, 0.000, 0.000, 0.000, 19:29:43.632
0, 0.00, 0.00, -572.25, 0.00, 0.000, 0.000, 0.000, 19:29:43.632
1, 0.00, 0.00, 177.31, 0.00, 0.000, 0.000, 0.000, 19:29:43.646
2, 0.00, 0.00, 204.88, 0.00, 0.000, 0.000, 0.000, 19:29:43.647
3, 0.00, 0.00, -546.47, 0.00, 0.000, 0.000, 0.000, 19:29:43.661
4, 0.00, 0.00, -96.34, 0.00, 0.000, 0.000, 0.000, 19:29:43.662
5, 0.00, 0.00, 407.94, 0.00, 0.000, 0.000, 0.000, 19:29:43.662
6, 0.00, 0.00, -383.72, 0.00, 0.000, 0.000, 0.000, 19:29:43.662
7, 0.00, 0.00, -360.86, 0.00, 0.000, 0.000, 0.000, 19:29:43.677
8, 0.00, 0.00, 375.22, 0.00, 0.000, 0.000, 0.000, 19:29:43.677
9, 0.00, 0.00, -117.74, 0.00, 0.000, 0.000, 0.000, 19:29:43.691
10, 0.00, 0.00, -591.46, 0.00, 0.000, 0.000, 0.000, 19:29:43.692
11, 0.00, 0.00, 298.75, 0.00, 0.000, 0.000, 0.000, 19:29:43.692
12, 0.00, 0.00, 150.97, 0.00, 0.000, 0.000, 0.000, 19:29:43.692
13, 0.00, 0.00, -534.82, 0.00, 0.000, 0.000, 0.000, 19:29:43.707
14, 0.00, 0.00, -74.30, 0.00, 0.000, 0.000, 0.000, 19:29:43.707
15, 0.00, 0.00, 409.18, 0.00, 0.000, 0.000, 0.000, 19:29:43.721
16, 0.00, 0.00, -381.51, 0.00, 0.000, 0.000, 0.000, 19:29:43.722
17, 0.00, 0.00, -369.29, 0.00, 0.000, 0.000, 0.000, 19:29:43.722
18, 0.00, 0.00, 441.19, 0.00, 0.000, 0.000, 0.000, 19:29:43.722
19, 0.00, 0.00, -125.88, 0.00, 0.000, 0.000, 0.000, 19:29:43.736
20, 0.00, 0.00, -546.18, 0.00, 0.000, 0.000, 0.000, 19:29:43.737
21, 0.00, 0.00, 245.54, 0.00, 0.000, 0.000, 0.000, 19:29:43.751
22, 0.00, 0.00, 257.54, 0.00, 0.000, 0.000, 0.000, 19:29:43.752
23, 0.00, 0.00, -557.63, 0.00, 0.000, 0.000, 0.000, 19:29:43.752
24, 0.00, 0.00, -12.91, 0.00, 0.000, 0.000, 0.000, 19:29:43.752
25, 0.00, 0.00, 397.15, 0.00, 0.000, 0.000, 0.000, 19:29:43.766
26, 0.00, 0.00, -370.84, 0.00, 0.000, 0.000, 0.000, 19:29:43.766
27, 0.00, 0.00, -367.78, 0.00, 0.000, 0.000, 0.000, 19:29:43.782
28, 0.00, 0.00, 381.48, 0.00, 0.000, 0.000, 0.000, 19:29:43.782
29, 0.00, 0.00, -147.37, 0.00, 0.000, 0.000, 0.000, 19:29:43.783
30, 0.00, 0.00, -634.79, 0.00, 0.000, 0.000, 0.000, 19:29:43.783
31, 0.00, 0.00, 222.17, 0.00, 0.000, 0.000, 0.000, 19:29:43.796
32, 0.00, 0.00, 172.70, 0.00, 0.000, 0.000, 0.000, 19:29:43.797
33, 0.00, 0.00, -573.08, 0.00, 0.000, 0.000, 0.000, 19:29:43.811
34, 0.00, 0.00, -122.58, 0.00, 0.000, 0.000, 0.000, 19:29:43.812
35, 0.00, 0.00, 374.90, 0.00, 0.000, 0.000, 0.000, 19:29:43.812
36, 0.00, 0.00, -421.74, 0.00, 0.000, 0.000, 0.000, 19:29:43.812
37, 0.00, 0.00, -424.22, 0.00, 0.000, 0.000, 0.000, 19:29:43.826
38, 0.00, 0.00, 418.04, 0.00, 0.000, 0.000, 0.000, 19:29:43.827
39, 0.00, 0.00, -108.34, 0.00, 0.000, 0.000, 0.000, 19:29:43.841
40, 0.00, 0.00, -573.74, 0.00, 0.000, 0.000, 0.000, 19:29:43.842
41, 0.00, 0.00, 207.81, 0.00, 0.000, 0.000, 0.000, 19:29:43.842
42, 0.00, 0.00, 237.14, 0.00, 0.000, 0.000, 0.000, 19:29:43.842
43, 0.00, 0.00, -541.96, 0.00, 0.000, 0.000, 0.000, 19:29:43.857
44, 0.00, 0.00, -134.89, 0.00, 0.000, 0.000, 0.000, 19:29:43.857
45, 0.00, 0.00, 414.93, 0.00, 0.000, 0.000, 0.000, 19:29:43.871
46, 0.00, 0.00, -430.90, 0.00, 0.000, 0.000, 0.000, 19:29:43.872
47, 0.00, 0.00, -371.96, 0.00, 0.000, 0.000, 0.000, 19:29:43.872
48, 0.00, 0.00, 426.48, 0.00, 0.000, 0.000, 0.000, 19:29:43.872
49, 0.00, 0.00, 139.44, 0.00, 0.000, 0.000, 0.000, 19:29:43.887
50, 0.00, 0.00, -357.73, 0.00, 0.000, 0.000, 0.000, 19:29:43.887
51, 0.00, 0.00, 532.77, 0.00, 0.000, 0.000, 0.000, 19:29:43.901
52, 0.00, 0.00, 453.44, 0.00, 0.000, 0.000, 0.000, 19:29:43.902
53, 0.00, 0.00, -374.64, 0.00, 0.000, 0.000, 0.000, 19:29:43.902
54, 0.00, 0.00, 46.06, 0.00, 0.000, 0.000, 0.000, 19:29:43.902
55, 0.00, 0.00, 184.23, 0.00, 0.000, 0.000, 0.000, 19:29:43.916
56, 0.00, 0.00, -610.02, 0.00, 0.000, 0.000, 0.000, 19:29:43.917
57, 0.00, 0.00, -568.06, 0.00, 0.000, 0.000, 0.000, 19:29:43.932
58, 0.00, 0.00, 273.89, 0.00, 0.000, 0.000, 0.000, 19:29:43.932
59, 0.00, 0.00, -87.94, 0.00, 0.000, 0.000, 0.000, 19:29:43.932
60, 0.00, 0.00, -620.42, 0.00, 0.000, 0.000, 0.000, 19:29:43.932
61, 0.00, 0.00, 112.77, 0.00, 0.000, 0.000, 0.000, 19:29:43.946
62, 0.00, 0.00, 176.02, 0.00, 0.000, 0.000, 0.000, 19:29:43.947
63, 0.00, 0.00, -664.71, 0.00, 0.000, 0.000, 0.000, 19:29:43.962
64, 0.00, 0.00, -207.52, 0.00, 0.000, 0.000, 0.000, 19:29:43.962
65, 0.00, 0.00, 446.10, 0.00, 0.000, 0.000, 0.000, 19:29:43.962
66, 0.00, 0.00, -413.69, 0.00, 0.000, 0.000, 0.000, 19:29:43.962
67, 0.00, 0.00, -427.82, 0.00, 0.000, 0.000, 0.000, 19:29:43.976
68, 0.00, 0.00, 423.28, 0.00, 0.000, 0.000, 0.000, 19:29:43.977
69, 0.00, 0.00, -114.47, 0.00, 0.000, 0.000, 0.000, 19:29:43.992
70, 0.00, 0.00, -578.76, 0.00, 0.000, 0.000, 0.000, 19:29:43.992
71, 0.00, 0.00, 155.77, 0.00, 0.000, 0.000, 0.000, 19:29:43.992
72, 0.00, 0.00, 228.38, 0.00, 0.000, 0.000, 0.000, 19:29:43.992
73, 0.00, 0.00, -553.11, 0.00, 0.000, 0.000, 0.000, 19:29:44.006
74, 0.00, 0.00, -116.15, 0.00, 0.000, 0.000, 0.000, 19:29:44.007
75, 0.00, 0.00, 412.20, 0.00, 0.000, 0.000, 0.000, 19:29:44.021
76, 0.00, 0.00, -385.19, 0.00, 0.000, 0.000, 0.000, 19:29:44.021
77, 0.00, 0.00, -401.67, 0.00, 0.000, 0.000, 0.000, 19:29:44.022
78, 0.00, 0.00, 461.81, 0.00, 0.000, 0.000, 0.000, 19:29:44.022
79, 0.00, 0.00, -79.78, 0.00, 0.000, 0.000, 0.000, 19:29:44.036
80, 0.00, 0.00, -573.26, 0.00, 0.000, 0.000, 0.000, 19:29:44.037
81, 0.00, 0.00, 207.08, 0.00, 0.000, 0.000, 0.000, 19:29:44.051
82, 0.00, 0.00, 169.07, 0.00, 0.000, 0.000, 0.000, 19:29:44.052
83, 0.00, 0.00, -485.59, 0.00, 0.000, 0.000, 0.000, 19:29:44.052
84, 0.00, 0.00, -66.70, 0.00, 0.000, 0.000, 0.000, 19:29:44.052
85, 0.00, 0.00, 367.95, 0.00, 0.000, 0.000, 0.000, 19:29:44.066
86, 0.00, 0.00, -343.88, 0.00, 0.000, 0.000, 0.000, 19:29:44.067
87, 0.00, 0.00, -412.30, 0.00, 0.000, 0.000, 0.000, 19:29:44.082
88, 0.00, 0.00, 418.23, 0.00, 0.000, 0.000, 0.000, 19:29:44.082
89, 0.00, 0.00, -9.40, 0.00, 0.000, 0.000, 0.000, 19:29:44.082
90, 0.00, 0.00, -511.51, 0.00, 0.000, 0.000, 0.000, 19:29:44.082
91, 0.00, 0.00, 172.86, 0.00, 0.000, 0.000, 0.000, 19:29:44.096
92, 0.00, 0.00, 266.67, 0.00, 0.000, 0.000, 0.000, 19:29:44.096
93, 0.00, 0.00, -579.56, 0.00, 0.000, 0.000, 0.000, 19:29:44.112
94, 0.00, 0.00, -35.17, 0.00, 0.000, 0.000, 0.000, 19:29:44.112
95, 0.00, 0.00, 440.50, 0.00, 0.000, 0.000, 0.000, 19:29:44.112
96, 0.00, 0.00, -258.84, 0.00, 0.000, 0.000, 0.000, 19:29:44.112
97, 0.00, 0.00, -371.86, 0.00, 0.000, 0.000, 0.000, 19:29:44.126
98, 0.00, 0.00, 372.68, 0.00, 0.000, 0.000, 0.000, 19:29:44.127
99, 0.00, 0.00, 11.73, 0.00, 0.000, 0.000, 0.000, 19:29:44.142
100, 0.00, 0.00, -566.84, 0.00, 0.000, 0.000, 0.000, 19:29:44.142
101, 0.00, 0.00, 252.33, 0.00, 0.000, 0.000, 0.000, 19:29:44.143
102, 0.00, 0.00, 313.58, 0.00, 0.000, 0.000, 0.000, 19:29:44.143
103, 0.00, 0.00, -527.67, 0.00, 0.000, 0.000, 0.000, 19:29:44.157
104, 0.00, 0.00, -76.72, 0.00, 0.000, 0.000, 0.000, 19:29:44.157
105, 0.00, 0.00, 456.41, 0.00, 0.000, 0.000, 0.000, 19:29:44.171
106, 0.00, 0.00, -351.72, 0.00, 0.000, 0.000, 0.000, 19:29:44.172
107, 0.00, 0.00, -338.07, 0.00, 0.000, 0.000, 0.000, 19:29:44.172
108, 0.00, 0.00, 389.03, 0.00, 0.000, 0.000, 0.000, 19:29:44.172
109, 0.00, 0.00, -45.65, 0.00, 0.000, 0.000, 0.000, 19:29:44.187
110, 0.00, 0.00, -606.25, 0.00, 0.000, 0.000, 0.000, 19:29:44.187
111, 0.00, 0.00, 125.82, 0.00, 0.000, 0.000, 0.000, 19:29:44.201
112, 0.00, 0.00, 183.50, 0.00, 0.000, 0.000, 0.000, 19:29:44.201
113, 0.00, 0.00, -638.34, 0.00, 0.000, 0.000, 0.000, 19:29:44.202
114, 0.00, 0.00, -172.56, 0.00, 0.000, 0.000, 0.000, 19:29:44.202
115, 0.00, 0.00, 382.16, 0.00, 0.000, 0.000, 0.000, 19:29:44.217
116, 0.00, 0.00, -431.62, 0.00, 0.000, 0.000, 0.000, 19:29:44.217
117, 0.00, 0.00, -496.92, 0.00, 0.000, 0.000, 0.000, 19:29:44.231
118, 0.00, 0.00, 333.57, 0.00, 0.000, 0.000, 0.000, 19:29:44.231
119, 0.00, 0.00, -102.08, 0.00, 0.000, 0.000, 0.000, 19:29:44.232
120, 0.00, 0.00, -604.00, 0.00, 0.000, 0.000, 0.000, 19:29:44.232
121, 0.00, 0.00, 142.50, 0.00, 0.000, 0.000, 0.000, 19:29:44.247
122, 0.00, 0.00, 216.63, 0.00, 0.000, 0.000, 0.000, 19:29:44.247
123, 0.00, 0.00, -667.07, 0.00, 0.000, 0.000, 0.000, 19:29:44.261
124, 0.00, 0.00, -45.15, 0.00, 0.000, 0.000, 0.000, 19:29:44.262
125, 0.00, 0.00, 343.09, 0.00, 0.000, 0.000, 0.000, 19:29:44.262
126, 0.00, 0.00, -403.19, 0.00, 0.000, 0.000, 0.000, 19:29:44.262
127, 0.00, 0.00, -469.47, 0.00, 0.000, 0.000, 0.000, 19:29:44.276
128, 0.00, 0.00, 381.14, 0.00, 0.000, 0.000, 0.000, 19:29:44.277
129, 0.00, 0.00, -66.55, 0.00, 0.000, 0.000, 0.000, 19:29:44.291
130, 0.00, 0.00, -597.54, 0.00, 0.000, 0.000, 0.000, 19:29:44.292
131, 0.00, 0.00, 172.56, 0.00, 0.000, 0.000, 0.000, 19:29:44.292
132, 0.00, 0.00, 220.17, 0.00, 0.000, 0.000, 0.000, 19:29:44.292
133, 0.00, 0.00, -573.75, 0.00, 0.000, 0.000, 0.000, 19:29:44.306
134, 0.00, 0.00, -140.91, 0.00, 0.000, 0.000, 0.000, 19:29:44.306
135, 0.00, 0.00, 477.34, 0.00, 0.000, 0.000, 0.000, 19:29:44.322
136, 0.00, 0.00, -383.62, 0.00, 0.000, 0.000, 0.000, 19:29:44.322
137, 0.00, 0.00, -380.41, 0.00, 0.000, 0.000, 0.000, 19:29:44.322
138, 0.00, 0.00, 335.27, 0.00, 0.000, 0.000, 0.000, 19:29:44.323
139, 0.00, 0.00, -27.18, 0.00, 0.000, 0.000, 0.000, 19:29:44.336
140, 0.00, 0.00, -556.11, 0.00, 0.000, 0.000, 0.000, 19:29:44.337
141, 0.00, 0.00, 141.83, 0.00, 0.000, 0.000, 0.000, 19:29:44.352
142, 0.00, 0.00, 297.93, 0.00, 0.000, 0.000, 0.000, 19:29:44.352
143, 0.00, 0.00, -584.09, 0.00, 0.000, 0.000, 0.000, 19:29:44.352
144, 0.00, 0.00, -132.26, 0.00, 0.000, 0.000, 0.000, 19:29:44.352
145, 0.00, 0.00, 412.38, 0.00, 0.000, 0.000, 0.000, 19:29:44.367
146, 0.00, 0.00, -345.70, 0.00, 0.000, 0.000, 0.000, 19:29:44.367
147, 0.00, 0.00, -456.00, 0.00, 0.000, 0.000, 0.000, 19:29:44.381
148, 0.00, 0.00, 396.43, 0.00, 0.000, 0.000, 0.000, 19:29:44.382
149, 0.00, 0.00, 2.43, 0.00, 0.000, 0.000, 0.000, 19:29:44.382
150, 0.00, 0.00, -596.49, 0.00, 0.000, 0.000, 0.000, 19:29:44.382
151, 0.00, 0.00, 172.74, 0.00, 0.000, 0.000, 0.000, 19:29:44.397
152, 0.00, 0.00, 221.08, 0.00, 0.000, 0.000, 0.000, 19:29:44.397
153, 0.00, 0.00, -481.52, 0.00, 0.000, 0.000, 0.000, 19:29:44.411
154, 0.00, 0.00, -84.03, 0.00, 0.000, 0.000, 0.000, 19:29:44.412
155, 0.00, 0.00, 380.81, 0.00, 0.000, 0.000, 0.000, 19:29:44.412
156, 0.00, 0.00, -349.43, 0.00, 0.000, 0.000, 0.000, 19:29:44.412
157, 0.00, 0.00, -479.09, 0.00, 0.000, 0.000, 0.000, 19:29:44.427
158, 0.00, 0.00, 373.74, 0.00, 0.000, 0.000, 0.000, 19:29:44.427
159, 0.00, 0.00, -7.74, 0.00, 0.000, 0.000, 0.000, 19:29:44.441
160, 0.00, 0.00, -613.92, 0.00, 0.000, 0.000, 0.000, 19:29:44.442
161, 0.00, 0.00, 163.34, 0.00, 0.000, 0.000, 0.000, 19:29:44.442
162, 0.00, 0.00, 258.97, 0.00, 0.000, 0.000, 0.000, 19:29:44.442
163, 0.00, 0.00, -570.39, 0.00, 0.000, 0.000, 0.000, 19:29:44.456
164, 0.00, 0.00, -146.69, 0.00, 0.000, 0.000, 0.000, 19:29:44.457
165, 0.00, 0.00, 411.91, 0.00, 0.000, 0.000, 0.000, 19:29:44.471
166, 0.00, 0.00, -364.38, 0.00, 0.000, 0.000, 0.000, 19:29:44.472
167, 0.00, 0.00, -428.07, 0.00, 0.000, 0.000, 0.000, 19:29:44.472
168, 0.00, 0.00, 400.60, 0.00, 0.000, 0.000, 0.000, 19:29:44.472
169, 0.00, 0.00, -20.76, 0.00, 0.000, 0.000, 0.000, 19:29:44.486
170, 0.00, 0.00, -623.98, 0.00, 0.000, 0.000, 0.000, 19:29:44.487
171, 0.00, 0.00, 203.76, 0.00, 0.000, 0.000, 0.000, 19:29:44.502
172, 0.00, 0.00, 258.29, 0.00, 0.000, 0.000, 0.000, 19:29:44.502
173, 0.00, 0.00, -569.73, 0.00, 0.000, 0.000, 0.000, 19:29:44.502
174, 0.00, 0.00, -107.46, 0.00, 0.000, 0.000, 0.000, 19:29:44.502
175, 0.00, 0.00, 417.67, 0.00, 0.000, 0.000, 0.000, 19:29:44.516
176, 0.00, 0.00, -358.82, 0.00, 0.000, 0.000, 0.000, 19:29:44.517
177, 0.00, 0.00, -414.31, 0.00, 0.000, 0.000, 0.000, 19:29:44.532
178, 0.00, 0.00, 347.23, 0.00, 0.000, 0.000, 0.000, 19:29:44.532
179, 0.00, 0.00, -54.86, 0.00, 0.000, 0.000, 0.000, 19:29:44.532
180, 0.00, 0.00, -488.13, 0.00, 0.000, 0.000, 0.000, 19:29:44.532
181, 0.00, 0.00, 93.33, 0.00, 0.000, 0.000, 0.000, 19:29:44.546
182, 0.00, 0.00, 221.68, 0.00, 0.000, 0.000, 0.000, 19:29:44.547
183, 0.00, 0.00, -526.93, 0.00, 0.000, 0.000, 0.000, 19:29:44.561
184, 0.00, 0.00, -153.42, 0.00, 0.000, 0.000, 0.000, 19:29:44.562
185, 0.00, 0.00, 448.89, 0.00, 0.000, 0.000, 0.000, 19:29:44.562
186, 0.00, 0.00, -292.14, 0.00, 0.000, 0.000, 0.000, 19:29:44.562
187, 0.00, 0.00, -518.73, 0.00, 0.000, 0.000, 0.000, 19:29:44.576
188, 0.00, 0.00, 384.15, 0.00, 0.000, 0.000, 0.000, 19:29:44.577
189, 0.00, 0.00, 0.74, 0.00, 0.000, 0.000, 0.000, 19:29:44.591
190, 0.00, 0.00, -587.84, 0.00, 0.000, 0.000, 0.000, 19:29:44.592
191, 0.00, 0.00, 157.76, 0.00, 0.000, 0.000, 0.000, 19:29:44.592
192, 0.00, 0.00, 291.18, 0.00, 0.000, 0.000, 0.000, 19:29:44.592
193, 0.00, 0.00, -554.91, 0.00, 0.000, 0.000, 0.000, 19:29:44.607
194, 0.00, 0.00, -161.49, 0.00, 0.000, 0.000, 0.000, 19:29:44.607
195, 0.00, 0.00, 441.46, 0.00, 0.000, 0.000, 0.000, 19:29:44.621
196, 0.00, 0.00, -325.89, 0.00, 0.000, 0.000, 0.000, 19:29:44.622
197, 0.00, 0.00, -441.39, 0.00, 0.000, 0.000, 0.000, 19:29:44.622
198, 0.00, 0.00, 380.63, 0.00, 0.000, 0.000, 0.000, 19:29:44.622
199, 0.00, 0.00, -18.84, 0.00, 0.000, 0.000, 0.000, 19:29:44.636
200, 0.00, 0.00, -545.61, 0.00, 0.000, 0.000, 0.000, 19:29:44.637
0, 0.00, 0.00, 241.22, 0.00, 0.000, 0.000, 0.000, 19:29:44.637
1, 0.00, 0.00, 257.81, 0.00, 0.000, 0.000, 0.000, 19:29:44.651
2, 0.00, 0.00, -566.84, 0.00, 0.000, 0.000, 0.000, 19:29:44.652
3, 0.00, 0.00, -97.32, 0.00, 0.000, 0.000, 0.000, 19:29:44.666
4, 0.00, 0.00, 388.03, 0.00, 0.000, 0.000, 0.000, 19:29:44.667
5, 0.00, 0.00, -317.69, 0.00, 0.000, 0.000, 0.000, 19:29:44.667
6, 0.00, 0.00, -448.43, 0.00, 0.000, 0.000, 0.000, 19:29:44.667
7, 0.00, 0.00, 333.69, 0.00, 0.000, 0.000, 0.000, 19:29:44.681
8, 0.00, 0.00, -0.35, 0.00, 0.000, 0.000, 0.000, 19:29:44.682
9, 0.00, 0.00, -614.47, 0.00, 0.000, 0.000, 0.000, 19:29:44.696
10, 0.00, 0.00, 112.29, 0.00, 0.000, 0.000, 0.000, 19:29:44.697
11, 0.00, 0.00, 209.50, 0.00, 0.000, 0.000, 0.000, 19:29:44.697
12, 0.00, 0.00, -577.36, 0.00, 0.000, 0.000, 0.000, 19:29:44.697
13, 0.00, 0.00, -139.76, 0.00, 0.000, 0.000, 0.000, 19:29:44.712
14, 0.00, 0.00, 402.98, 0.00, 0.000, 0.000, 0.000, 19:29:44.712
15, 0.00, 0.00, -355.21, 0.00, 0.000, 0.000, 0.000, 19:29:44.726
16, 0.00, 0.00, -428.21, 0.00, 0.000, 0.000, 0.000, 19:29:44.727
17, 0.00, 0.00, 388.59, 0.00, 0.000, 0.000, 0.000, 19:29:44.727
18, 0.00, 0.00, -65.13, 0.00, 0.000, 0.000, 0.000, 19:29:44.727
19, 0.00, 0.00, -613.34, 0.00, 0.000, 0.000, 0.000, 19:29:44.742
20, 0.00, 0.00, 124.41, 0.00, 0.000, 0.000, 0.000, 19:29:44.742
21, 0.00, 0.00, 236.73, 0.00, 0.000, 0.000, 0.000, 19:29:44.756
22, 0.00, 0.00, -565.43, 0.00, 0.000, 0.000, 0.000, 19:29:44.757
23, 0.00, 0.00, -95.85, 0.00, 0.000, 0.000, 0.000, 19:29:44.757
24, 0.00, 0.00, 407.69, 0.00, 0.000, 0.000, 0.000, 19:29:44.757
25, 0.00, 0.00, -263.09, 0.00, 0.000, 0.000, 0.000, 19:29:44.771
26, 0.00, 0.00, -378.98, 0.00, 0.000, 0.000, 0.000, 19:29:44.772
27, 0.00, 0.00, 513.69, 0.00, 0.000, 0.000, 0.000, 19:29:44.787
28, 0.00, 0.00, 279.69, 0.00, 0.000, 0.000, 0.000, 19:29:44.787
29, 0.00, 0.00, -247.38, 0.00, 0.000, 0.000, 0.000, 19:29:44.787
30, 0.00, 0.00, 391.10, 0.00, 0.000, 0.000, 0.000, 19:29:44.787
31, 0.00, 0.00, 473.84, 0.00, 0.000, 0.000, 0.000, 19:29:44.802
32, 0.00, 0.00, 434.03, 0.00, 0.000, 0.000, 0.000, 19:29:44.802
33, 0.00, 0.00, 618.62, 0.00, 0.000, 0.000, 0.000, 19:29:44.818
34, 0.00, 0.00, 1130.44, 0.00, 0.000, 0.000, 0.000, 19:29:44.818
35, 0.00, 0.00, 553.27, 0.00, 0.000, 0.000, 0.000, 19:29:44.818
36, 0.00, 0.00, 378.68, 0.00, 0.000, 0.000, 0.000, 19:29:44.819
37, 0.00, 0.00, 1257.22, 0.00, 0.000, 0.000, 0.000, 19:29:44.832
38, 0.00, 0.00, 917.06, 0.00, 0.000, 0.000, 0.000, 19:29:44.832
39, 0.00, 0.00, 256.47, 0.00, 0.000, 0.000, 0.000, 19:29:44.847
40, 0.00, 0.00, 1098.87, 0.00, 0.000, 0.000, 0.000, 19:29:44.847
41, 0.00, 0.00, 1306.78, 0.00, 0.000, 0.000, 0.000, 19:29:44.847
42, 0.00, 0.00, 356.90, 0.00, 0.000, 0.000, 0.000, 19:29:44.847
43, 0.00, 0.00, 808.36, 0.00, 0.000, 0.000, 0.000, 19:29:44.862
44, 0.00, 0.00, 1389.11, 0.00, 0.000, 0.000, 0.000, 19:29:44.862
45, 0.00, 0.00, 576.20, 0.00, 0.000, 0.000, 0.000, 19:29:44.876
46, 0.00, 0.00, 500.28, 0.00, 0.000, 0.000, 0.000, 19:29:44.877
47, 0.00, 0.00, 1428.34, 0.00, 0.000, 0.000, 0.000, 19:29:44.877
48, 0.00, 0.00, 924.05, 0.00, 0.000, 0.000, 0.000, 19:29:44.877
49, 0.00, 0.00, 356.55, 0.00, 0.000, 0.000, 0.000, 19:29:44.892
50, 0.00, 0.00, 1149.59, 0.00, 0.000, 0.000, 0.000, 19:29:44.892
51, 0.00, 0.00, 1207.45, 0.00, 0.000, 0.000, 0.000, 19:29:44.906
52, 0.00, 0.00, 415.75, 0.00, 0.000, 0.000, 0.000, 19:29:44.907
53, 0.00, 0.00, 801.13, 0.00, 0.000, 0.000, 0.000, 19:29:44.907
54, 0.00, 0.00, 1391.76, 0.00, 0.000, 0.000, 0.000, 19:29:44.907
55, 0.00, 0.00, 696.56, 0.00, 0.000, 0.000, 0.000, 19:29:44.922
56, 0.00, 0.00, 534.23, 0.00, 0.000, 0.000, 0.000, 19:29:44.922
57, 0.00, 0.00, 1361.02, 0.00, 0.000, 0.000, 0.000, 19:29:44.936
58, 0.00, 0.00, 974.97, 0.00, 0.000, 0.000, 0.000, 19:29:44.936
59, 0.00, 0.00, 422.25, 0.00, 0.000, 0.000, 0.000, 19:29:44.937
60, 0.00, 0.00, 1123.28, 0.00, 0.000, 0.000, 0.000, 19:29:44.937
61, 0.00, 0.00, 1243.09, 0.00, 0.000, 0.000, 0.000, 19:29:44.951
62, 0.00, 0.00, 448.23, 0.00, 0.000, 0.000, 0.000, 19:29:44.952
63, 0.00, 0.00, 815.23, 0.00, 0.000, 0.000, 0.000, 19:29:44.966
64, 0.00, 0.00, 1474.51, 0.00, 0.000, 0.000, 0.000, 19:29:44.967
65, 0.00, 0.00, 641.80, 0.00, 0.000, 0.000, 0.000, 19:29:44.967
66, 0.00, 0.00, 574.69, 0.00, 0.000, 0.000, 0.000, 19:29:44.967
67, 0.00, 0.00, 1349.35, 0.00, 0.000, 0.000, 0.000, 19:29:44.981
68, 0.00, 0.00, 1017.23, 0.00, 0.000, 0.000, 0.000, 19:29:44.981
69, 0.00, 0.00, 326.80, 0.00, 0.000, 0.000, 0.000, 19:29:44.997
70, 0.00, 0.00, 1201.72, 0.00, 0.000, 0.000, 0.000, 19:29:44.997
71, 0.00, 0.00, 1315.48, 0.00, 0.000, 0.000, 0.000, 19:29:44.997
72, 0.00, 0.00, 424.99, 0.00, 0.000, 0.000, 0.000, 19:29:44.997
73, 0.00, 0.00, 865.58, 0.00, 0.000, 0.000, 0.000, 19:29:45.011
74, 0.00, 0.00, 1487.10, 0.00, 0.000, 0.000, 0.000, 19:29:45.012
75, 0.00, 0.00, 711.27, 0.00, 0.000, 0.000, 0.000, 19:29:45.027
76, 0.00, 0.00, 585.89, 0.00, 0.000, 0.000, 0.000, 19:29:45.027
77, 0.00, 0.00, 1402.45, 0.00, 0.000, 0.000, 0.000, 19:29:45.027
78, 0.00, 0.00, 994.66, 0.00, 0.000, 0.000, 0.000, 19:29:45.027
79, 0.00, 0.00, 432.83, 0.00, 0.000, 0.000, 0.000, 19:29:45.041
80, 0.00, 0.00, 1166.73, 0.00, 0.000, 0.000, 0.000, 19:29:45.042
81, 0.00, 0.00, 1335.91, 0.00, 0.000, 0.000, 0.000, 19:29:45.056
82, 0.00, 0.00, 437.98, 0.00, 0.000, 0.000, 0.000, 19:29:45.057
83, 0.00, 0.00, 846.13, 0.00, 0.000, 0.000, 0.000, 19:29:45.057
84, 0.00, 0.00, 1487.76, 0.00, 0.000, 0.000, 0.000, 19:29:45.057
85, 0.00, 0.00, 656.34, 0.00, 0.000, 0.000, 0.000, 19:29:45.072
86, 0.00, 0.00, 562.51, 0.00, 0.000, 0.000, 0.000, 19:29:45.072
87, 0.00, 0.00, 1358.23, 0.00, 0.000, 0.000, 0.000, 19:29:45.086
88, 0.00, 0.00, 899.45, 0.00, 0.000, 0.000, 0.000, 19:29:45.086
89, 0.00, 0.00, 270.59, 0.00, 0.000, 0.000, 0.000, 19:29:45.087
90, 0.00, 0.00, 1146.74, 0.00, 0.000, 0.000, 0.000, 19:29:45.087
91, 0.00, 0.00, 1228.61, 0.00, 0.000, 0.000, 0.000, 19:29:45.102
92, 0.00, 0.00, 311.94, 0.00, 0.000, 0.000, 0.000, 19:29:45.102
93, 0.00, 0.00, 813.13, 0.00, 0.000, 0.000, 0.000, 19:29:45.117
94, 0.00, 0.00, 1343.67, 0.00, 0.000, 0.000, 0.000, 19:29:45.117
95, 0.00, 0.00, 568.83, 0.00, 0.000, 0.000, 0.000, 19:29:45.117
96, 0.00, 0.00, 476.10, 0.00, 0.000, 0.000, 0.000, 19:29:45.117
97, 0.00, 0.00, 1322.69, 0.00, 0.000, 0.000, 0.000, 19:29:45.132
98, 0.00, 0.00, 949.37, 0.00, 0.000, 0.000, 0.000, 19:29:45.132
99, 0.00, 0.00, 265.35, 0.00, 0.000, 0.000, 0.000, 19:29:45.146
100, 0.00, 0.00, 1177.57, 0.00, 0.000, 0.000, 0.000, 19:29:45.147
101, 0.00, 0.00, 1259.90, 0.00, 0.000, 0.000, 0.000, 19:29:45.147
102, 0.00, 0.00, 337.54, 0.00, 0.000, 0.000, 0.000, 19:29:45.147
103, 0.00, 0.00, 785.19, 0.00, 0.000, 0.000, 0.000, 19:29:45.161
104, 0.00, 0.00, 1339.27, 0.00, 0.000, 0.000, 0.000, 19:29:45.162
105, 0.00, 0.00, 621.75, 0.00, 0.000, 0.000, 0.000, 19:29:45.176
106, 0.00, 0.00, 502.96, 0.00, 0.000, 0.000, 0.000, 19:29:45.177
107, 0.00, 0.00, 1359.57, 0.00, 0.000, 0.000, 0.000, 19:29:45.177
108, 0.00, 0.00, 1001.81, 0.00, 0.000, 0.000, 0.000, 19:29:45.177
109, 0.00, 0.00, 345.62, 0.00, 0.000, 0.000, 0.000, 19:29:45.191
110, 0.00, 0.00, 1126.08, 0.00, 0.000, 0.000, 0.000, 19:29:45.192
111, 0.00, 0.00, 1295.96, 0.00, 0.000, 0.000, 0.000, 19:29:45.207
112, 0.00, 0.00, 429.14, 0.00, 0.000, 0.000, 0.000, 19:29:45.207
113, 0.00, 0.00, 772.28, 0.00, 0.000, 0.000, 0.000, 19:29:45.207
114, 0.00, 0.00, 1444.52, 0.00, 0.000, 0.000, 0.000, 19:29:45.207
115, 0.00, 0.00, 628.69, 0.00, 0.000, 0.000, 0.000, 19:29:45.221
116, 0.00, 0.00, 499.40, 0.00, 0.000, 0.000, 0.000, 19:29:45.222
117, 0.00, 0.00, 1426.80, 0.00, 0.000, 0.000, 0.000, 19:29:45.242
118, 0.00, 0.00, 1041.83, 0.00, 0.000, 0.000, 0.000, 19:29:45.242
119, 0.00, 0.00, 347.04, 0.00, 0.000, 0.000, 0.000, 19:29:45.242
120, 0.00, 0.00, 1096.71, 0.00, 0.000, 0.000, 0.000, 19:29:45.242
121, 0.00, 0.00, 1279.81, 0.00, 0.000, 0.000, 0.000, 19:29:45.252
122, 0.00, 0.00, 376.51, 0.00, 0.000, 0.000, 0.000, 19:29:45.252
123, 0.00, 0.00, 833.48, 0.00, 0.000, 0.000, 0.000, 19:29:45.267
124, 0.00, 0.00, 1409.15, 0.00, 0.000, 0.000, 0.000, 19:29:45.267
125, 0.00, 0.00, 655.75, 0.00, 0.000, 0.000, 0.000, 19:29:45.267
126, 0.00, 0.00, 552.71, 0.00, 0.000, 0.000, 0.000, 19:29:45.267
127, 0.00, 0.00, 1348.54, 0.00, 0.000, 0.000, 0.000, 19:29:45.282
128, 0.00, 0.00, 987.10, 0.00, 0.000, 0.000, 0.000, 19:29:45.282
129, 0.00, 0.00, 411.96, 0.00, 0.000, 0.000, 0.000, 19:29:45.296
130, 0.00, 0.00, 1084.11, 0.00, 0.000, 0.000, 0.000, 19:29:45.297
131, 0.00, 0.00, 1287.74, 0.00, 0.000, 0.000, 0.000, 19:29:45.297
132, 0.00, 0.00, 413.52, 0.00, 0.000, 0.000, 0.000, 19:29:45.297
133, 0.00, 0.00, 838.57, 0.00, 0.000, 0.000, 0.000, 19:29:45.312
134, 0.00, 0.00, 1406.30, 0.00, 0.000, 0.000, 0.000, 19:29:45.312
135, 0.00, 0.00, 743.46, 0.00, 0.000, 0.000, 0.000, 19:29:45.326
136, 0.00, 0.00, 482.03, 0.00, 0.000, 0.000, 0.000, 19:29:45.327
137, 0.00, 0.00, 1298.66, 0.00, 0.000, 0.000, 0.000, 19:29:45.327
138, 0.00, 0.00, 983.33, 0.00, 0.000, 0.000, 0.000, 19:29:45.327
139, 0.00, 0.00, 354.26, 0.00, 0.000, 0.000, 0.000, 19:29:45.342
140, 0.00, 0.00, 1130.56, 0.00, 0.000, 0.000, 0.000, 19:29:45.342
141, 0.00, 0.00, 1278.57, 0.00, 0.000, 0.000, 0.000, 19:29:45.356
142, 0.00, 0.00, 448.90, 0.00, 0.000, 0.000, 0.000, 19:29:45.357
143, 0.00, 0.00, 738.61, 0.00, 0.000, 0.000, 0.000, 19:29:45.357
144, 0.00, 0.00, 1385.36, 0.00, 0.000, 0.000, 0.000, 19:29:45.357
145, 0.00, 0.00, 710.97, 0.00, 0.000, 0.000, 0.000, 19:29:45.372
146, 0.00, 0.00, 462.03, 0.00, 0.000, 0.000, 0.000, 19:29:45.372
147, 0.00, 0.00, 1379.42, 0.00, 0.000, 0.000, 0.000, 19:29:45.386
148, 0.00, 0.00, 1026.31, 0.00, 0.000, 0.000, 0.000, 19:29:45.387
149, 0.00, 0.00, 352.74, 0.00, 0.000, 0.000, 0.000, 19:29:45.387
150, 0.00, 0.00, 1115.91, 0.00, 0.000, 0.000, 0.000, 19:29:45.387
151, 0.00, 0.00, 1267.76, 0.00, 0.000, 0.000, 0.000, 19:29:45.402
152, 0.00, 0.00, 493.34, 0.00, 0.000, 0.000, 0.000, 19:29:45.402
153, 0.00, 0.00, 765.09, 0.00, 0.000, 0.000, 0.000, 19:29:45.416
154, 0.00, 0.00, 1448.13, 0.00, 0.000, 0.000, 0.000, 19:29:45.417
155, 0.00, 0.00, 602.64, 0.00, 0.000, 0.000, 0.000, 19:29:45.417
156, 0.00, 0.00, 492.61, 0.00, 0.000, 0.000, 0.000, 19:29:45.417
157, 0.00, 0.00, 1343.23, 0.00, 0.000, 0.000, 0.000, 19:29:45.431
158, 0.00, 0.00, 1043.71, 0.00, 0.000, 0.000, 0.000, 19:29:45.432
159, 0.00, 0.00, 382.17, 0.00, 0.000, 0.000, 0.000, 19:29:45.447
160, 0.00, 0.00, 1076.09, 0.00, 0.000, 0.000, 0.000, 19:29:45.447
161, 0.00, 0.00, 1279.24, 0.00, 0.000, 0.000, 0.000, 19:29:45.456
162, 0.00, 0.00, 428.20, 0.00, 0.000, 0.000, 0.000, 19:29:45.456
163, 0.00, 0.00, 749.84, 0.00, 0.000, 0.000, 0.000, 19:29:45.461
164, 0.00, 0.00, 1443.84, 0.00, 0.000, 0.000, 0.000, 19:29:45.462
165, 0.00, 0.00, 676.92, 0.00, 0.000, 0.000, 0.000, 19:29:45.477
166, 0.00, 0.00, 475.78, 0.00, 0.000, 0.000, 0.000, 19:29:45.477
167, 0.00, 0.00, 1383.29, 0.00, 0.000, 0.000, 0.000, 19:29:45.477
168, 0.00, 0.00, 1008.37, 0.00, 0.000, 0.000, 0.000, 19:29:45.477
169, 0.00, 0.00, 392.78, 0.00, 0.000, 0.000, 0.000, 19:29:45.491
170, 0.00, 0.00, 1148.24, 0.00, 0.000, 0.000, 0.000, 19:29:45.492
171, 0.00, 0.00, 1333.84, 0.00, 0.000, 0.000, 0.000, 19:29:45.506
172, 0.00, 0.00, 401.99, 0.00, 0.000, 0.000, 0.000, 19:29:45.507
173, 0.00, 0.00, 798.21, 0.00, 0.000, 0.000, 0.000, 19:29:45.507
174, 0.00, 0.00, 1457.68, 0.00, 0.000, 0.000, 0.000, 19:29:45.507
175, 0.00, 0.00, 718.99, 0.00, 0.000, 0.000, 0.000, 19:29:45.521
176, 0.00, 0.00, 506.57, 0.00, 0.000, 0.000, 0.000, 19:29:45.522
177, 0.00, 0.00, 1345.46, 0.00, 0.000, 0.000, 0.000, 19:29:45.536
178, 0.00, 0.00, 1022.91, 0.00, 0.000, 0.000, 0.000, 19:29:45.536
179, 0.00, 0.00, 372.57, 0.00, 0.000, 0.000, 0.000, 19:29:45.537
180, 0.00, 0.00, 1024.00, 0.00, 0.000, 0.000, 0.000, 19:29:45.537
181, 0.00, 0.00, 1304.44, 0.00, 0.000, 0.000, 0.000, 19:29:45.552
182, 0.00, 0.00, 411.54, 0.00, 0.000, 0.000, 0.000, 19:29:45.552
183, 0.00, 0.00, 731.13, 0.00, 0.000, 0.000, 0.000, 19:29:45.566
184, 0.00, 0.00, 1426.42, 0.00, 0.000, 0.000, 0.000, 19:29:45.567
185, 0.00, 0.00, 673.04, 0.00, 0.000, 0.000, 0.000, 19:29:45.567
186, 0.00, 0.00, 422.07, 0.00, 0.000, 0.000, 0.000, 19:29:45.567
187, 0.00, 0.00, 463.98, 0.00, 0.000, 0.000, 0.000, 19:29:45.582
188, 0.00, 0.00, -13.52, 0.00, 0.000, 0.000, 0.000, 19:29:45.582
189, 0.00, 0.00, -689.92, 0.00, 0.000, 0.000, 0.000, 19:29:45.596
190, 0.00, 0.00, 133.94, 0.00, 0.000, 0.000, 0.000, 19:29:45.597
191, 0.00, 0.00, 257.69, 0.00, 0.000, 0.000, 0.000, 19:29:45.597
192, 0.00, 0.00, -508.75, 0.00, 0.000, 0.000, 0.000, 19:29:45.597
193, 0.00, 0.00, -253.33, 0.00, 0.000, 0.000, 0.000, 19:29:45.611
194, 0.00, 0.00, 464.89, 0.00, 0.000, 0.000, 0.000, 19:29:45.612
195, 0.00, 0.00, -312.49, 0.00, 0.000, 0.000, 0.000, 19:29:45.627
196, 0.00, 0.00, -505.43, 0.00, 0.000, 0.000, 0.000, 19:29:45.627
197, 0.00, 0.00, 360.37, 0.00, 0.000, 0.000, 0.000, 19:29:45.627
198, 0.00, 0.00, 20.92, 0.00, 0.000, 0.000, 0.000, 19:29:45.628
199, 0.00, 0.00, -589.61, 0.00, 0.000, 0.000, 0.000, 19:29:45.641
200, 0.00, 0.00, 190.97, 0.00, 0.000, 0.000, 0.000, 19:29:45.641
0, 0.00, 0.00, 423.76, 0.00, 0.000, 0.000, 0.000, 19:29:45.642
1, 0.00, 0.00, -329.66, 0.00, 0.000, 0.000, 0.000, 19:29:45.657
2, 0.00, 0.00, 103.31, 0.00, 0.000, 0.000, 0.000, 19:29:45.657
3, 0.00, 0.00, 787.80, 0.00, 0.000, 0.000, 0.000, 19:29:45.671
4, 0.00, 0.00, -79.26, 0.00, 0.000, 0.000, 0.000, 19:29:45.672
5, 0.00, 0.00, -435.39, 0.00, 0.000, 0.000, 0.000, 19:29:45.672
6, 0.00, 0.00, 387.83, 0.00, 0.000, 0.000, 0.000, 19:29:45.672
7, 0.00, 0.00, -185.73, 0.00, 0.000, 0.000, 0.000, 19:29:45.687
8, 0.00, 0.00, -850.98, 0.00, 0.000, 0.000, 0.000, 19:29:45.687
9, 0.00, 0.00, -35.90, 0.00, 0.000, 0.000, 0.000, 19:29:45.701
10, 0.00, 0.00, 253.26, 0.00, 0.000, 0.000, 0.000, 19:29:45.702
11, 0.00, 0.00, -542.87, 0.00, 0.000, 0.000, 0.000, 19:29:45.702
12, 0.00, 0.00, -357.46, 0.00, 0.000, 0.000, 0.000, 19:29:45.702
13, 0.00, 0.00, 368.01, 0.00, 0.000, 0.000, 0.000, 19:29:45.717
14, 0.00, 0.00, -341.09, 0.00, 0.000, 0.000, 0.000, 19:29:45.717
15, 0.00, 0.00, -518.41, 0.00, 0.000, 0.000, 0.000, 19:29:45.731
16, 0.00, 0.00, 333.39, 0.00, 0.000, 0.000, 0.000, 19:29:45.732
17, 0.00, 0.00, 1.87, 0.00, 0.000, 0.000, 0.000, 19:29:45.732
18, 0.00, 0.00, -633.83, 0.00, 0.000, 0.000, 0.000, 19:29:45.732
19, 0.00, 0.00, 113.04, 0.00, 0.000, 0.000, 0.000, 19:29:45.746
20, 0.00, 0.00, 277.05, 0.00, 0.000, 0.000, 0.000, 19:29:45.747
21, 0.00, 0.00, -529.38, 0.00, 0.000, 0.000, 0.000, 19:29:45.761
22, 0.00, 0.00, -170.59, 0.00, 0.000, 0.000, 0.000, 19:29:45.762
23, 0.00, 0.00, 404.41, 0.00, 0.000, 0.000, 0.000, 19:29:45.762
24, 0.00, 0.00, -335.27, 0.00, 0.000, 0.000, 0.000, 19:29:45.762
25, 0.00, 0.00, -495.45, 0.00, 0.000, 0.000, 0.000, 19:29:45.776
26, 0.00, 0.00, 370.78, 0.00, 0.000, 0.000, 0.000, 19:29:45.777
27, 0.00, 0.00, 50.89, 0.00, 0.000, 0.000, 0.000, 19:29:45.792
28, 0.00, 0.00, -592.38, 0.00, 0.000, 0.000, 0.000, 19:29:45.792
29, 0.00, 0.00, 82.60, 0.00, 0.000, 0.000, 0.000, 19:29:45.792
30, 0.00, 0.00, 281.13, 0.00, 0.000, 0.000, 0.000, 19:29:45.792
31, 0.00, 0.00, -502.95, 0.00, 0.000, 0.000, 0.000, 19:29:45.807
32, 0.00, 0.00, -201.86, 0.00, 0.000, 0.000, 0.000, 19:29:45.807
33, 0.00, 0.00, 472.96, 0.00, 0.000, 0.000, 0.000, 19:29:45.821
34, 0.00, 0.00, -351.06, 0.00, 0.000, 0.000, 0.000, 19:29:45.821
35, 0.00, 0.00, -471.48, 0.00, 0.000, 0.000, 0.000, 19:29:45.822
36, 0.00, 0.00, 414.61, 0.00, 0.000, 0.000, 0.000, 19:29:45.822
