%OpenBCI Raw EEG Data
%
%Sample Rate = 200.0 Hz
%First Column = SampleIndex
%Last Column = Timestamp 
%Other Columns = EEG data in microvolts followed by Accel Data (in G) interleaved with Aux Data
0, 10.61, 38.78, -186.61, 8.54, 0.000, 0.000, 0.000, 17:46:46.671
1, 25.04, 46.44, -185.20, 13.08, 0.000, 0.000, 0.000, 17:46:46.685
2, -4.34, 45.52, -171.21, 8.84, 0.000, 0.000, 0.000, 17:46:46.686
3, 4.44, 42.29, -176.86, 9.85, 0.000, 0.000, 0.000, 17:46:46.701
4, 69.01, 27.76, -188.61, 8.79, 0.000, 0.000, 0.000, 17:46:46.701
5, 155.49, 42.60, -183.42, 15.95, 0.000, 0.000, 0.000, 17:46:46.701
6, 201.80, 51.82, -170.34, 7.96, 0.000, 0.000, 0.000, 17:46:46.701
7, 169.98, 53.15, -181.14, 6.89, 0.000, 0.000, 0.000, 17:46:46.715
8, 19.27, 61.82, -170.36, 12.87, 0.000, 0.000, 0.000, 17:46:46.716
9, -114.74, 31.09, -186.57, 13.62, 0.000, 0.000, 0.000, 17:46:46.731
10, -136.29, 69.62, -184.19, 9.47, 0.000, 0.000, 0.000, 17:46:46.731
11, -48.00, 74.71, -170.28, 12.09, 0.000, 0.000, 0.000, 17:46:46.731
12, 12.04, 63.51, -172.42, 11.76, 0.000, 0.000, 0.000, 17:46:46.732
13, 5.25, 58.10, -154.90, 8.13, 0.000, 0.000, 0.000, 17:46:46.746
14, -32.73, 62.27, -151.66, 11.46, 0.000, 0.000, 0.000, 17:46:46.746
15, -40.57, 52.17, -161.87, 11.53, 0.000, 0.000, 0.000, 17:46:46.761
16, -5.01, 45.52, -160.57, 7.15, 0.000, 0.000, 0.000, 17:46:46.761
17, -25.83, 48.39, -172.53, 7.37, 0.000, 0.000, 0.000, 17:46:46.762
18, 10.02, 48.47, -175.12, 7.90, 0.000, 0.000, 0.000, 17:46:46.762
19, 33.83, 48.28, -168.79, 8.19, 0.000, 0.000, 0.000, 17:46:46.776
20, 8.73, 48.09, -168.97, 3.75, 0.000, 0.000, 0.000, 17:46:46.776
21, -8.65, 52.70, -162.06, 10.57, 0.000, 0.000, 0.000, 17:46:46.791
22, 22.23, 32.50, -170.48, 13.74, 0.000, 0.000, 0.000, 17:46:46.792
23, 35.82, 37.05, -169.60, 10.94, 0.000, 0.000, 0.000, 17:46:46.792
24, 28.40, 50.24, -163.28, 12.56, 0.000, 0.000, 0.000, 17:46:46.792
25, 14.48, 53.23, -162.93, 8.13, 0.000, 0.000, 0.000, 17:46:46.805
26, 34.46, 44.20, -172.45, 10.37, 0.000, 0.000, 0.000, 17:46:46.806
27, 26.62, 51.23, -164.27, 11.83, 0.000, 0.000, 0.000, 17:46:46.821
28, 32.72, 46.08, -179.86, 10.91, 0.000, 0.000, 0.000, 17:46:46.821
29, -10.50, 48.98, -165.02, 11.70, 0.000, 0.000, 0.000, 17:46:46.822
30, 16.36, 47.31, -172.19, 13.41, 0.000, 0.000, 0.000, 17:46:46.822
31, 37.92, 51.06, -167.09, 6.40, 0.000, 0.000, 0.000, 17:46:46.836
32, 7.59, 58.77, -169.03, 14.51, 0.000, 0.000, 0.000, 17:46:46.837
33, 0.93, 49.03, -169.76, 11.59, 0.000, 0.000, 0.000, 17:46:46.851
34, 0.85, 55.12, -172.88, 8.55, 0.000, 0.000, 0.000, 17:46:46.851
35, 26.35, 43.36, -170.71, 9.03, 0.000, 0.000, 0.000, 17:46:46.851
36, 39.78, 46.40, -158.93, 8.58, 0.000, 0.000, 0.000, 17:46:46.852
37, 27.75, 53.60, -160.67, 8.60, 0.000, 0.000, 0.000, 17:46:46.866
38, 40.28, 57.36, -163.52, 9.54, 0.000, 0.000, 0.000, 17:46:46.866
39, 44.67, 60.44, -172.80, 11.12, 0.000, 0.000, 0.000, 17:46:46.881
40, 24.10, 56.34, -170.04, 14.32, 0.000, 0.000, 0.000, 17:46:46.882
41, 32.43, 57.87, -172.72, 13.73, 0.000, 0.000, 0.000, 17:46:46.882
42, 54.03, 55.75, -176.80, 11.55, 0.000, 0.000, 0.000, 17:46:46.882
43, 45.69, 59.09, -168.21, 7.38, 0.000, 0.000, 0.000, 17:46:46.896
44, 41.82, 57.88, -159.53, 4.78, 0.000, 0.000, 0.000, 17:46:46.896
45, 17.88, 72.40, -162.07, 10.40, 0.000, 0.000, 0.000, 17:46:46.911
46, 18.29, 75.80, -158.53, 9.30, 0.000, 0.000, 0.000, 17:46:46.911
47, 33.82, 68.96, -165.73, 13.39, 0.000, 0.000, 0.000, 17:46:46.912
48, 42.04, 69.88, -170.90, 11.61, 0.000, 0.000, 0.000, 17:46:46.912
49, 40.28, 75.80, -154.49, 10.59, 0.000, 0.000, 0.000, 17:46:46.926
50, 22.76, 70.11, -153.76, 10.71, 0.000, 0.000, 0.000, 17:46:46.926
51, -0.89, 74.44, -151.57, 8.24, 0.000, 0.000, 0.000, 17:46:46.941
52, -5.50, 62.78, -159.69, 9.47, 0.000, 0.000, 0.000, 17:46:46.941
53, 14.60, 72.15, -155.07, 7.70, 0.000, 0.000, 0.000, 17:46:46.941
54, -31.46, 76.39, -155.73, 7.15, 0.000, 0.000, 0.000, 17:46:46.942
55, -19.82, 64.72, -162.75, 8.08, 0.000, 0.000, 0.000, 17:46:46.955
56, -11.24, 52.66, -177.63, 7.74, 0.000, 0.000, 0.000, 17:46:46.956
57, -46.08, 64.07, -178.29, 11.51, 0.000, 0.000, 0.000, 17:46:46.971
58, -41.87, 70.38, -161.31, 6.63, 0.000, 0.000, 0.000, 17:46:46.971
59, -3.60, 64.90, -170.28, 10.14, 0.000, 0.000, 0.000, 17:46:46.972
60, -12.34, 68.83, -170.43, 6.38, 0.000, 0.000, 0.000, 17:46:46.972
61, -35.42, 64.66, -173.02, 13.45, 0.000, 0.000, 0.000, 17:46:46.985
62, -12.54, 57.47, -171.73, 11.86, 0.000, 0.000, 0.000, 17:46:46.986
63, -16.85, 49.09, -183.75, 12.89, 0.000, 0.000, 0.000, 17:46:47.001
64, -28.94, 53.28, -176.79, 11.14, 0.000, 0.000, 0.000, 17:46:47.001
65, 11.15, 63.72, -170.62, 9.62, 0.000, 0.000, 0.000, 17:46:47.002
66, 17.80, 45.75, -169.42, 11.34, 0.000, 0.000, 0.000, 17:46:47.002
67, 17.67, 35.64, -182.76, 11.28, 0.000, 0.000, 0.000, 17:46:47.016
68, 1.68, 30.49, -176.70, 5.90, 0.000, 0.000, 0.000, 17:46:47.016
69, -19.34, 47.82, -178.10, 10.47, 0.000, 0.000, 0.000, 17:46:47.031
70, -11.75, 51.64, -168.91, 9.42, 0.000, 0.000, 0.000, 17:46:47.031
71, 26.32, 56.43, -168.86, 6.40, 0.000, 0.000, 0.000, 17:46:47.032
72, 70.24, 51.44, -180.27, 12.63, 0.000, 0.000, 0.000, 17:46:47.032
73, 3.10, 42.71, -189.28, 9.96, 0.000, 0.000, 0.000, 17:46:47.046
74, -28.82, 45.17, -186.97, 5.64, 0.000, 0.000, 0.000, 17:46:47.046
75, 19.30, 48.63, -173.12, 11.60, 0.000, 0.000, 0.000, 17:46:47.061
76, 20.89, 40.08, -178.85, 12.30, 0.000, 0.000, 0.000, 17:46:47.062
77, 12.07, 46.01, -175.01, 8.80, 0.000, 0.000, 0.000, 17:46:47.062
78, 15.71, 53.96, -170.35, 4.65, 0.000, 0.000, 0.000, 17:46:47.062
79, 17.54, 42.90, -173.43, 10.26, 0.000, 0.000, 0.000, 17:46:47.076
80, 29.99, 44.52, -172.84, 5.03, 0.000, 0.000, 0.000, 17:46:47.076
81, 8.97, 51.85, -166.13, 9.34, 0.000, 0.000, 0.000, 17:46:47.090
82, 7.31, 55.67, -157.17, 9.90, 0.000, 0.000, 0.000, 17:46:47.090
83, -6.98, 55.23, -158.69, 9.02, 0.000, 0.000, 0.000, 17:46:47.091
84, 1.40, 73.64, -140.35, 9.91, 0.000, 0.000, 0.000, 17:46:47.091
85, 33.43, 76.81, -132.14, 10.27, 0.000, 0.000, 0.000, 17:46:47.106
86, 24.22, 104.22, -117.92, 8.21, 0.000, 0.000, 0.000, 17:46:47.106
87, -3.12, 103.27, -120.60, 15.64, 0.000, 0.000, 0.000, 17:46:47.121
88, 36.94, 109.87, -103.58, 6.68, 0.000, 0.000, 0.000, 17:46:47.121
89, 3.29, 109.38, -98.63, 7.96, 0.000, 0.000, 0.000, 17:46:47.122
90, 23.94, 128.96, -97.99, 11.19, 0.000, 0.000, 0.000, 17:46:47.122
91, -4.67, 124.22, -92.44, 14.98, 0.000, 0.000, 0.000, 17:46:47.136
92, 26.77, 126.51, -95.88, 8.47, 0.000, 0.000, 0.000, 17:46:47.136
93, 21.74, 117.82, -111.93, 10.85, 0.000, 0.000, 0.000, 17:46:47.166
94, 24.27, 141.80, -114.04, 7.22, 0.000, 0.000, 0.000, 17:46:47.166
95, 18.58, 128.92, -124.16, 13.55, 0.000, 0.000, 0.000, 17:46:47.167
96, 29.66, 114.69, -139.12, 10.61, 0.000, 0.000, 0.000, 17:46:47.167
97, -4.81, 87.63, -167.18, 8.85, 0.000, 0.000, 0.000, 17:46:47.167
98, -11.18, 70.51, -162.11, 12.34, 0.000, 0.000, 0.000, 17:46:47.167
99, 12.90, 63.76, -166.80, 9.63, 0.000, 0.000, 0.000, 17:46:47.181
100, 39.25, 38.87, -172.64, 8.61, 0.000, 0.000, 0.000, 17:46:47.181
101, 4.21, 50.80, -186.01, 13.23, 0.000, 0.000, 0.000, 17:46:47.181
102, 4.31, 49.34, -200.72, 9.81, 0.000, 0.000, 0.000, 17:46:47.182
103, 0.60, 39.17, -192.82, 8.60, 0.000, 0.000, 0.000, 17:46:47.211
104, -22.26, 28.86, -209.52, 5.74, 0.000, 0.000, 0.000, 17:46:47.211
105, 17.69, 32.43, -197.42, 11.51, 0.000, 0.000, 0.000, 17:46:47.211
106, 36.04, 33.66, -203.56, 10.90, 0.000, 0.000, 0.000, 17:46:47.212
107, 25.86, 32.88, -201.12, 15.18, 0.000, 0.000, 0.000, 17:46:47.212
108, 16.73, 41.08, -200.43, 5.54, 0.000, 0.000, 0.000, 17:46:47.212
109, 34.30, 13.56, -213.86, 10.39, 0.000, 0.000, 0.000, 17:46:47.226
110, 42.81, -5.56, -205.95, 14.60, 0.000, 0.000, 0.000, 17:46:47.227
111, -5.95, 42.29, -201.43, 7.26, 0.000, 0.000, 0.000, 17:46:47.241
112, 30.35, 33.21, -210.96, 9.89, 0.000, 0.000, 0.000, 17:46:47.241
113, 1.89, 34.23, -208.19, 15.77, 0.000, 0.000, 0.000, 17:46:47.241
114, -1.88, 23.42, -209.94, 8.48, 0.000, 0.000, 0.000, 17:46:47.242
115, 3.30, 10.60, -206.14, 8.10, 0.000, 0.000, 0.000, 17:46:47.256
116, -0.72, 35.96, -194.95, 10.17, 0.000, 0.000, 0.000, 17:46:47.256
117, -1.80, 34.10, -200.03, 7.95, 0.000, 0.000, 0.000, 17:46:47.271
118, 1.93, 35.15, -199.00, 6.86, 0.000, 0.000, 0.000, 17:46:47.271
119, 41.81, 23.58, -205.24, 10.06, 0.000, 0.000, 0.000, 17:46:47.272
120, 0.97, 4.86, -217.07, 12.30, 0.000, 0.000, 0.000, 17:46:47.272
121, -7.81, 19.76, -199.27, 12.30, 0.000, 0.000, 0.000, 17:46:47.286
122, 9.41, 14.54, -204.08, 11.07, 0.000, 0.000, 0.000, 17:46:47.294
123, -2.78, 18.48, -205.45, 9.47, 0.000, 0.000, 0.000, 17:46:47.301
124, -0.22, 13.55, -206.12, 6.99, 0.000, 0.000, 0.000, 17:46:47.301
125, 64.23, 28.88, -214.54, 7.36, 0.000, 0.000, 0.000, 17:46:47.301
126, 25.09, 3.74, -206.72, 9.63, 0.000, 0.000, 0.000, 17:46:47.302
127, -4.09, 5.72, -211.78, 8.90, 0.000, 0.000, 0.000, 17:46:47.315
128, 89.77, 10.00, -197.11, 5.06, 0.000, 0.000, 0.000, 17:46:47.316
129, 181.34, 1.01, -205.84, 7.32, 0.000, 0.000, 0.000, 17:46:47.331
130, 194.10, 5.37, -210.85, 7.76, 0.000, 0.000, 0.000, 17:46:47.331
131, 134.57, -3.99, -205.55, 11.79, 0.000, 0.000, 0.000, 17:46:47.332
132, 16.31, 2.42, -202.58, 9.55, 0.000, 0.000, 0.000, 17:46:47.332
133, -110.87, 27.19, -198.73, 13.37, 0.000, 0.000, 0.000, 17:46:47.346
134, -157.76, 42.95, -195.13, 8.67, 0.000, 0.000, 0.000, 17:46:47.346
135, -71.61, 14.00, -215.30, 13.75, 0.000, 0.000, 0.000, 17:46:47.361
136, -10.50, 24.22, -200.95, 9.09, 0.000, 0.000, 0.000, 17:46:47.361
137, 7.76, 60.46, -175.21, 9.94, 0.000, 0.000, 0.000, 17:46:47.362
138, 6.45, 44.48, -182.97, 9.83, 0.000, 0.000, 0.000, 17:46:47.362
139, -3.98, 31.49, -186.76, 9.36, 0.000, 0.000, 0.000, 17:46:47.376
140, -31.39, 32.09, -200.64, 8.25, 0.000, 0.000, 0.000, 17:46:47.376
141, -3.69, 42.10, -196.83, 9.48, 0.000, 0.000, 0.000, 17:46:47.391
142, 22.35, 33.76, -193.33, 11.24, 0.000, 0.000, 0.000, 17:46:47.391
143, 0.70, 17.81, -203.90, 10.89, 0.000, 0.000, 0.000, 17:46:47.392
144, 12.32, 21.07, -200.82, 7.38, 0.000, 0.000, 0.000, 17:46:47.392
145, 19.71, 16.18, -202.88, 7.98, 0.000, 0.000, 0.000, 17:46:47.406
146, 23.02, 19.47, -204.48, 11.00, 0.000, 0.000, 0.000, 17:46:47.406
147, 13.24, 25.44, -207.32, 7.48, 0.000, 0.000, 0.000, 17:46:47.421
148, 36.86, 32.97, -192.30, 6.66, 0.000, 0.000, 0.000, 17:46:47.421
149, 11.53, 15.37, -185.21, 4.91, 0.000, 0.000, 0.000, 17:46:47.421
150, -3.00, 38.97, -183.74, 9.75, 0.000, 0.000, 0.000, 17:46:47.421
151, 13.78, 44.88, -188.66, 8.90, 0.000, 0.000, 0.000, 17:46:47.436
152, 37.15, 63.28, -190.96, 8.65, 0.000, 0.000, 0.000, 17:46:47.436
153, 28.78, 48.36, -190.86, 13.68, 0.000, 0.000, 0.000, 17:46:47.451
154, 28.62, 35.77, -192.22, 10.12, 0.000, 0.000, 0.000, 17:46:47.451
155, 5.00, 37.26, -192.04, 15.35, 0.000, 0.000, 0.000, 17:46:47.451
156, 44.15, 39.07, -208.57, 10.60, 0.000, 0.000, 0.000, 17:46:47.452
157, -1.05, 36.87, -197.86, 9.33, 0.000, 0.000, 0.000, 17:46:47.466
158, 14.80, 48.96, -189.83, 7.47, 0.000, 0.000, 0.000, 17:46:47.466
159, 43.78, 38.95, -195.15, 14.87, 0.000, 0.000, 0.000, 17:46:47.481
160, 10.38, 29.71, -189.07, 6.51, 0.000, 0.000, 0.000, 17:46:47.481
161, 28.58, 27.84, -190.68, 11.21, 0.000, 0.000, 0.000, 17:46:47.482
162, 40.88, 56.43, -187.65, 7.77, 0.000, 0.000, 0.000, 17:46:47.482
163, 43.69, 52.01, -190.23, 10.04, 0.000, 0.000, 0.000, 17:46:47.496
164, 20.91, 41.59, -186.78, 8.61, 0.000, 0.000, 0.000, 17:46:47.497
165, 31.84, 45.37, -192.80, 13.36, 0.000, 0.000, 0.000, 17:46:47.511
166, 55.29, 54.34, -186.05, 7.78, 0.000, 0.000, 0.000, 17:46:47.511
167, 26.75, 53.12, -208.87, 16.50, 0.000, 0.000, 0.000, 17:46:47.512
168, 22.85, 43.56, -204.50, 7.48, 0.000, 0.000, 0.000, 17:46:47.512
169, 49.67, 65.30, -189.06, 10.89, 0.000, 0.000, 0.000, 17:46:47.525
170, 18.02, 62.98, -193.38, 5.93, 0.000, 0.000, 0.000, 17:46:47.526
171, 40.61, 48.42, -203.17, 10.53, 0.000, 0.000, 0.000, 17:46:47.541
172, 80.19, 31.53, -202.57, 9.55, 0.000, 0.000, 0.000, 17:46:47.541
173, 13.94, 40.68, -194.51, 13.07, 0.000, 0.000, 0.000, 17:46:47.542
174, -11.15, 58.93, -202.16, 8.08, 0.000, 0.000, 0.000, 17:46:47.542
175, 19.26, 48.28, -188.59, 8.20, 0.000, 0.000, 0.000, 17:46:47.556
176, 18.39, 50.34, -196.97, 14.09, 0.000, 0.000, 0.000, 17:46:47.556
177, -41.00, 46.63, -192.16, 13.38, 0.000, 0.000, 0.000, 17:46:47.571
178, -17.52, 42.94, -187.70, 6.52, 0.000, 0.000, 0.000, 17:46:47.571
179, -19.14, 60.65, -184.07, 10.71, 0.000, 0.000, 0.000, 17:46:47.572
180, -39.98, 43.25, -195.42, 8.92, 0.000, 0.000, 0.000, 17:46:47.572
181, -50.98, 68.82, -182.62, 7.79, 0.000, 0.000, 0.000, 17:46:47.586
182, -14.14, 61.17, -173.88, 6.13, 0.000, 0.000, 0.000, 17:46:47.586
183, -31.17, 32.70, -186.76, 10.60, 0.000, 0.000, 0.000, 17:46:47.602
184, -46.48, 23.19, -191.45, 9.06, 0.000, 0.000, 0.000, 17:46:47.602
185, -23.68, 59.15, -189.08, 10.53, 0.000, 0.000, 0.000, 17:46:47.602
186, 4.24, 74.20, -167.47, 11.76, 0.000, 0.000, 0.000, 17:46:47.602
187, -13.77, 51.56, -176.22, 11.69, 0.000, 0.000, 0.000, 17:46:47.616
188, -13.81, 49.80, -184.11, 7.22, 0.000, 0.000, 0.000, 17:46:47.616
189, 27.20, 48.93, -184.55, 8.06, 0.000, 0.000, 0.000, 17:46:47.631
190, -14.65, 44.48, -190.68, 13.72, 0.000, 0.000, 0.000, 17:46:47.632
191, -20.62, 71.16, -174.58, 11.83, 0.000, 0.000, 0.000, 17:46:47.632
192, 13.01, 43.50, -192.03, 8.57, 0.000, 0.000, 0.000, 17:46:47.632
193, 29.58, 45.86, -188.24, 16.69, 0.000, 0.000, 0.000, 17:46:47.646
194, -6.58, 44.72, -187.02, 9.76, 0.000, 0.000, 0.000, 17:46:47.646
195, 18.10, 48.10, -183.64, 11.52, 0.000, 0.000, 0.000, 17:46:47.661
196, 24.37, 48.65, -182.54, 8.43, 0.000, 0.000, 0.000, 17:46:47.661
197, -4.21, 43.15, -193.93, 7.37, 0.000, 0.000, 0.000, 17:46:47.662
198, 2.17, 46.26, -179.45, 6.91, 0.000, 0.000, 0.000, 17:46:47.662
199, 48.12, 36.27, -177.36, 14.24, 0.000, 0.000, 0.000, 17:46:47.676
200, 34.63, 45.50, -168.05, 9.66, 0.000, 0.000, 0.000, 17:46:47.676
0, -14.70, 46.95, -177.09, 13.68, 0.000, 0.000, 0.000, 17:46:47.677
1, -11.66, 41.95, -181.62, 10.72, 0.000, 0.000, 0.000, 17:46:47.691
2, 35.94, 27.23, -198.19, 5.48, 0.000, 0.000, 0.000, 17:46:47.691
3, 29.04, 24.99, -183.00, 10.51, 0.000, 0.000, 0.000, 17:46:47.706
4, 6.14, 58.43, -169.03, 9.33, 0.000, 0.000, 0.000, 17:46:47.706
5, 2.44, 50.08, -176.76, 9.10, 0.000, 0.000, 0.000, 17:46:47.707
6, -3.82, 47.85, -184.34, 10.61, 0.000, 0.000, 0.000, 17:46:47.707
7, 17.25, 32.45, -200.46, 8.77, 0.000, 0.000, 0.000, 17:46:47.721
8, 31.44, 24.34, -190.62, 10.06, 0.000, 0.000, 0.000, 17:46:47.721
9, 13.31, 22.94, -195.00, 11.35, 0.000, 0.000, 0.000, 17:46:47.736
10, 4.61, 35.16, -181.61, 6.97, 0.000, 0.000, 0.000, 17:46:47.736
11, 32.00, 26.83, -188.53, 14.28, 0.000, 0.000, 0.000, 17:46:47.736
12, 29.00, 34.21, -189.60, 7.66, 0.000, 0.000, 0.000, 17:46:47.737
13, 7.37, 31.57, -188.41, 5.60, 0.000, 0.000, 0.000, 17:46:47.751
14, 3.72, 34.31, -187.74, 9.39, 0.000, 0.000, 0.000, 17:46:47.751
15, 18.12, 38.82, -187.59, 10.61, 0.000, 0.000, 0.000, 17:46:47.766
16, 6.43, 26.95, -186.58, 13.82, 0.000, 0.000, 0.000, 17:46:47.766
17, 15.74, 28.04, -194.02, 7.58, 0.000, 0.000, 0.000, 17:46:47.766
18, 10.94, 29.78, -173.75, 7.19, 0.000, 0.000, 0.000, 17:46:47.767
19, -16.05, 19.95, -190.94, 10.39, 0.000, 0.000, 0.000, 17:46:47.781
20, -9.26, 40.85, -183.22, 7.86, 0.000, 0.000, 0.000, 17:46:47.781
21, 11.05, 30.32, -186.97, 8.44, 0.000, 0.000, 0.000, 17:46:47.796
22, 36.81, 30.29, -195.12, 10.44, 0.000, 0.000, 0.000, 17:46:47.796
23, 30.76, 38.14, -190.85, 8.50, 0.000, 0.000, 0.000, 17:46:47.796
24, 44.23, 36.30, -195.95, 9.90, 0.000, 0.000, 0.000, 17:46:47.796
25, 8.56, 30.42, -184.49, 10.83, 0.000, 0.000, 0.000, 17:46:47.811
26, -5.02, 19.83, -190.87, 7.10, 0.000, 0.000, 0.000, 17:46:47.811
27, 18.09, 31.29, -187.63, 7.11, 0.000, 0.000, 0.000, 17:46:47.826
28, 22.84, 47.33, -179.51, 7.86, 0.000, 0.000, 0.000, 17:46:47.826
29, 33.55, 36.83, -188.44, 10.18, 0.000, 0.000, 0.000, 17:46:47.826
30, 15.42, 38.66, -191.18, 9.36, 0.000, 0.000, 0.000, 17:46:47.827
31, 35.55, 45.34, -182.30, 12.36, 0.000, 0.000, 0.000, 17:46:47.841
32, 13.60, 33.48, -194.74, 9.58, 0.000, 0.000, 0.000, 17:46:47.841
33, -28.55, 37.89, -181.50, 11.95, 0.000, 0.000, 0.000, 17:46:47.856
34, -8.73, 34.93, -184.69, 9.21, 0.000, 0.000, 0.000, 17:46:47.856
35, -9.23, 22.58, -198.81, 12.32, 0.000, 0.000, 0.000, 17:46:47.857
36, -14.99, 20.75, -188.58, 11.00, 0.000, 0.000, 0.000, 17:46:47.857
37, 16.49, 20.17, -185.37, 11.51, 0.000, 0.000, 0.000, 17:46:47.871
38, 40.10, 31.62, -194.36, 11.94, 0.000, 0.000, 0.000, 17:46:47.871
39, 21.45, 44.77, -191.77, 8.79, 0.000, 0.000, 0.000, 17:46:47.886
40, -19.77, 37.27, -190.75, 10.47, 0.000, 0.000, 0.000, 17:46:47.886
41, 5.14, 19.65, -204.06, 8.61, 0.000, 0.000, 0.000, 17:46:47.887
42, 21.67, 27.90, -199.50, 11.09, 0.000, 0.000, 0.000, 17:46:47.887
43, 7.67, 23.12, -198.95, 10.39, 0.000, 0.000, 0.000, 17:46:47.901
44, 29.38, 10.48, -196.65, 8.37, 0.000, 0.000, 0.000, 17:46:47.901
45, 108.33, 8.32, -200.32, 12.25, 0.000, 0.000, 0.000, 17:46:47.931
46, 170.61, 15.43, -204.24, 10.36, 0.000, 0.000, 0.000, 17:46:47.931
47, 190.87, 13.64, -206.65, 10.60, 0.000, 0.000, 0.000, 17:46:47.932
48, 167.44, 11.42, -210.58, 10.80, 0.000, 0.000, 0.000, 17:46:47.932
49, -32.41, 19.90, -206.49, 9.43, 0.000, 0.000, 0.000, 17:46:47.932
50, -111.30, 28.42, -198.27, 14.87, 0.000, 0.000, 0.000, 17:46:47.932
51, -150.72, 30.03, -189.44, 9.89, 0.000, 0.000, 0.000, 17:46:47.946
52, -46.00, 37.67, -189.26, 8.92, 0.000, 0.000, 0.000, 17:46:47.946
53, -21.64, 35.40, -191.55, 9.10, 0.000, 0.000, 0.000, 17:46:47.946
54, 0.40, 18.95, -190.87, 9.97, 0.000, 0.000, 0.000, 17:46:47.947
55, -18.63, 34.13, -203.18, 6.52, 0.000, 0.000, 0.000, 17:46:47.961
56, -3.32, 48.36, -196.10, 8.00, 0.000, 0.000, 0.000, 17:46:47.961
57, -2.26, 30.27, -194.51, 9.76, 0.000, 0.000, 0.000, 17:46:47.976
58, 19.79, 24.51, -192.32, 7.95, 0.000, 0.000, 0.000, 17:46:47.976
59, 16.42, 9.84, -197.40, 10.67, 0.000, 0.000, 0.000, 17:46:47.976
60, 7.39, 40.30, -182.95, 8.13, 0.000, 0.000, 0.000, 17:46:47.977
61, 0.52, 47.72, -181.03, 9.80, 0.000, 0.000, 0.000, 17:46:48.006
62, -15.04, 43.78, -194.91, 6.93, 0.000, 0.000, 0.000, 17:46:48.007
63, -4.06, 29.64, -206.62, 6.09, 0.000, 0.000, 0.000, 17:46:48.007
64, 25.75, 17.60, -206.68, 8.71, 0.000, 0.000, 0.000, 17:46:48.007
65, 36.67, 30.27, -175.86, 11.20, 0.000, 0.000, 0.000, 17:46:48.007
66, -0.36, 26.09, -179.97, 10.07, 0.000, 0.000, 0.000, 17:46:48.007
67, 24.44, 32.82, -174.28, 12.15, 0.000, 0.000, 0.000, 17:46:48.021
68, 21.77, 18.10, -179.89, 12.68, 0.000, 0.000, 0.000, 17:46:48.021
69, 32.71, 20.97, -177.03, 8.03, 0.000, 0.000, 0.000, 17:46:48.036
70, 15.12, 20.78, -187.20, 7.86, 0.000, 0.000, 0.000, 17:46:48.036
71, 16.96, 23.88, -178.17, 6.84, 0.000, 0.000, 0.000, 17:46:48.037
72, 19.16, 9.95, -191.92, 11.14, 0.000, 0.000, 0.000, 17:46:48.037
73, 29.88, 6.64, -189.25, 7.29, 0.000, 0.000, 0.000, 17:46:48.051
74, 33.53, 15.20, -188.71, 12.46, 0.000, 0.000, 0.000, 17:46:48.051
75, 34.71, 18.24, -192.46, 13.13, 0.000, 0.000, 0.000, 17:46:48.066
76, 15.50, 20.66, -195.70, 9.62, 0.000, 0.000, 0.000, 17:46:48.066
77, 18.17, 16.00, -189.18, 12.33, 0.000, 0.000, 0.000, 17:46:48.066
78, 29.29, 27.30, -190.80, 8.67, 0.000, 0.000, 0.000, 17:46:48.067
79, 54.51, 23.54, -190.70, 11.80, 0.000, 0.000, 0.000, 17:46:48.092
80, 24.89, 27.54, -185.01, 10.89, 0.000, 0.000, 0.000, 17:46:48.092
81, 25.48, 38.26, -183.75, 10.41, 0.000, 0.000, 0.000, 17:46:48.100
82, 29.76, 28.16, -186.98, 7.38, 0.000, 0.000, 0.000, 17:46:48.101
83, 27.70, 36.17, -185.64, 7.27, 0.000, 0.000, 0.000, 17:46:48.101
84, 35.92, 37.67, -190.56, 6.37, 0.000, 0.000, 0.000, 17:46:48.101
85, 56.09, 18.92, -198.47, 11.80, 0.000, 0.000, 0.000, 17:46:48.111
86, 37.00, 33.78, -192.09, 10.23, 0.000, 0.000, 0.000, 17:46:48.111
87, 24.36, 24.53, -182.77, 10.61, 0.000, 0.000, 0.000, 17:46:48.126
88, 36.54, 46.17, -188.02, 12.58, 0.000, 0.000, 0.000, 17:46:48.126
89, 37.45, 52.19, -197.94, 7.27, 0.000, 0.000, 0.000, 17:46:48.127
90, 40.31, 54.31, -191.33, 10.34, 0.000, 0.000, 0.000, 17:46:48.127
91, 7.05, 26.31, -190.83, 9.25, 0.000, 0.000, 0.000, 17:46:48.141
92, 2.80, 43.96, -187.59, 4.50, 0.000, 0.000, 0.000, 17:46:48.142
93, -3.29, 49.54, -187.57, 7.78, 0.000, 0.000, 0.000, 17:46:48.156
94, 8.79, 49.29, -182.37, 6.67, 0.000, 0.000, 0.000, 17:46:48.156
95, -16.47, 39.84, -188.27, 9.53, 0.000, 0.000, 0.000, 17:46:48.157
96, -95.06, 42.91, -184.56, 10.14, 0.000, 0.000, 0.000, 17:46:48.157
97, -33.72, 49.10, -177.82, 9.20, 0.000, 0.000, 0.000, 17:46:48.171
98, -25.55, 44.81, -180.23, 6.97, 0.000, 0.000, 0.000, 17:46:48.171
99, -7.54, 37.79, -188.12, 10.57, 0.000, 0.000, 0.000, 17:46:48.186
100, -42.33, 46.63, -179.83, 11.89, 0.000, 0.000, 0.000, 17:46:48.186
101, -51.81, 54.13, -184.29, 7.36, 0.000, 0.000, 0.000, 17:46:48.186
102, -20.58, 25.18, -183.85, 11.71, 0.000, 0.000, 0.000, 17:46:48.187
103, -28.01, 44.28, -188.03, 5.55, 0.000, 0.000, 0.000, 17:46:48.201
104, 9.01, 57.00, -184.03, 8.25, 0.000, 0.000, 0.000, 17:46:48.201
105, -10.82, 38.41, -194.40, 11.80, 0.000, 0.000, 0.000, 17:46:48.216
106, -13.48, 47.19, -191.83, 6.66, 0.000, 0.000, 0.000, 17:46:48.216
107, 13.23, 46.72, -182.00, 8.10, 0.000, 0.000, 0.000, 17:46:48.217
108, 29.22, 33.06, -186.54, 10.78, 0.000, 0.000, 0.000, 17:46:48.217
109, 18.27, 42.36, -188.95, 11.95, 0.000, 0.000, 0.000, 17:46:48.231
110, 11.82, 11.57, -191.54, 6.83, 0.000, 0.000, 0.000, 17:46:48.231
111, 3.19, 49.08, -180.98, 12.43, 0.000, 0.000, 0.000, 17:46:48.246
112, -15.87, 58.16, -184.86, 9.21, 0.000, 0.000, 0.000, 17:46:48.246
113, -0.97, 54.23, -171.96, 7.29, 0.000, 0.000, 0.000, 17:46:48.246
114, 32.96, 50.85, -173.99, 7.05, 0.000, 0.000, 0.000, 17:46:48.246
115, 27.36, 31.96, -181.09, 11.59, 0.000, 0.000, 0.000, 17:46:48.261
116, -18.16, 42.70, -211.20, 11.24, 0.000, 0.000, 0.000, 17:46:48.261
117, 10.11, 67.53, -177.30, 11.45, 0.000, 0.000, 0.000, 17:46:48.276
118, 30.08, 57.27, -179.16, 13.67, 0.000, 0.000, 0.000, 17:46:48.276
119, 12.47, 46.39, -181.60, 12.72, 0.000, 0.000, 0.000, 17:46:48.277
120, 3.35, 58.08, -176.48, 13.22, 0.000, 0.000, 0.000, 17:46:48.277
121, 12.84, 47.70, -180.02, 14.19, 0.000, 0.000, 0.000, 17:46:48.291
122, 50.74, 43.83, -189.54, 10.10, 0.000, 0.000, 0.000, 17:46:48.291
123, -11.11, 35.73, -190.15, 9.16, 0.000, 0.000, 0.000, 17:46:48.306
124, -2.03, 19.35, -196.71, 6.36, 0.000, 0.000, 0.000, 17:46:48.307
125, 34.32, 21.64, -197.62, 7.56, 0.000, 0.000, 0.000, 17:46:48.307
126, 14.99, 52.71, -190.38, 9.98, 0.000, 0.000, 0.000, 17:46:48.307
127, 11.03, 31.11, -192.66, 11.53, 0.000, 0.000, 0.000, 17:46:48.321
128, 23.61, 53.16, -187.75, 8.94, 0.000, 0.000, 0.000, 17:46:48.321
129, 17.02, 39.85, -188.96, 10.10, 0.000, 0.000, 0.000, 17:46:48.336
130, 16.29, 27.10, -182.38, 12.18, 0.000, 0.000, 0.000, 17:46:48.336
131, 22.50, 40.62, -181.55, 12.30, 0.000, 0.000, 0.000, 17:46:48.337
132, 2.81, 57.77, -181.45, 5.55, 0.000, 0.000, 0.000, 17:46:48.337
133, 4.92, 43.92, -188.09, 12.42, 0.000, 0.000, 0.000, 17:46:48.351
134, 17.00, 18.92, -177.39, 8.67, 0.000, 0.000, 0.000, 17:46:48.351
135, 23.84, 44.50, -175.57, 11.48, 0.000, 0.000, 0.000, 17:46:48.366
136, -22.72, 44.88, -202.71, 12.39, 0.000, 0.000, 0.000, 17:46:48.366
137, -2.35, 50.65, -180.40, 5.77, 0.000, 0.000, 0.000, 17:46:48.367
138, 31.11, 45.47, -184.11, 10.43, 0.000, 0.000, 0.000, 17:46:48.367
139, 30.03, 41.79, -192.23, 6.43, 0.000, 0.000, 0.000, 17:46:48.381
140, 18.48, 33.77, -180.85, 10.65, 0.000, 0.000, 0.000, 17:46:48.381
141, 2.75, 30.67, -182.00, 11.25, 0.000, 0.000, 0.000, 17:46:48.396
142, 5.94, 30.44, -189.00, 4.32, 0.000, 0.000, 0.000, 17:46:48.396
143, 48.06, 62.69, -194.16, 7.97, 0.000, 0.000, 0.000, 17:46:48.397
144, 51.01, 58.67, -187.92, 11.90, 0.000, 0.000, 0.000, 17:46:48.397
145, 25.60, 43.36, -190.15, 14.70, 0.000, 0.000, 0.000, 17:46:48.411
146, -12.85, 47.92, -187.78, 7.08, 0.000, 0.000, 0.000, 17:46:48.411
147, 1.86, 25.57, -183.76, 12.21, 0.000, 0.000, 0.000, 17:46:48.426
148, 9.72, 14.03, -176.52, 9.25, 0.000, 0.000, 0.000, 17:46:48.426
149, 23.75, 54.28, -183.29, 10.62, 0.000, 0.000, 0.000, 17:46:48.426
150, -5.74, 45.08, -181.90, 8.41, 0.000, 0.000, 0.000, 17:46:48.427
151, 25.03, 45.12, -188.22, 13.14, 0.000, 0.000, 0.000, 17:46:48.441
152, -13.03, 35.35, -177.10, 9.67, 0.000, 0.000, 0.000, 17:46:48.441
153, -17.93, 42.98, -180.96, 8.64, 0.000, 0.000, 0.000, 17:46:48.456
154, 11.06, 47.41, -177.28, 9.19, 0.000, 0.000, 0.000, 17:46:48.456
155, 20.34, 46.23, -189.61, 10.24, 0.000, 0.000, 0.000, 17:46:48.457
156, 39.01, 54.11, -185.47, 8.83, 0.000, 0.000, 0.000, 17:46:48.457
157, 11.79, 35.64, -181.08, 10.08, 0.000, 0.000, 0.000, 17:46:48.471
158, 6.23, 32.37, -180.91, 10.28, 0.000, 0.000, 0.000, 17:46:48.471
159, -3.24, 46.35, -193.47, 13.34, 0.000, 0.000, 0.000, 17:46:48.486
160, -3.08, 56.28, -178.87, 10.27, 0.000, 0.000, 0.000, 17:46:48.486
161, 28.14, 34.85, -174.20, 8.03, 0.000, 0.000, 0.000, 17:46:48.487
162, 93.74, 12.66, -193.26, 7.06, 0.000, 0.000, 0.000, 17:46:48.487
163, 137.41, 43.63, -188.42, 9.31, 0.000, 0.000, 0.000, 17:46:48.501
164, 173.89, 15.68, -202.12, 10.60, 0.000, 0.000, 0.000, 17:46:48.501
165, 186.30, 58.50, -193.06, 8.09, 0.000, 0.000, 0.000, 17:46:48.516
166, 59.75, 53.34, -216.79, 9.39, 0.000, 0.000, 0.000, 17:46:48.516
167, -92.61, 47.81, -183.12, 7.94, 0.000, 0.000, 0.000, 17:46:48.517
168, -142.15, 59.44, -167.64, 9.26, 0.000, 0.000, 0.000, 17:46:48.517
169, -113.06, 55.40, -172.44, 7.17, 0.000, 0.000, 0.000, 17:46:48.531
170, -41.43, 52.05, -167.97, 10.65, 0.000, 0.000, 0.000, 17:46:48.531
171, 35.17, 69.08, -165.47, 6.49, 0.000, 0.000, 0.000, 17:46:48.561
172, 7.75, 58.50, -182.17, 10.22, 0.000, 0.000, 0.000, 17:46:48.561
173, -1.89, 48.00, -181.20, 13.41, 0.000, 0.000, 0.000, 17:46:48.562
174, -16.95, 44.69, -194.73, 11.89, 0.000, 0.000, 0.000, 17:46:48.562
175, -6.52, 38.17, -196.54, 10.41, 0.000, 0.000, 0.000, 17:46:48.562
176, -22.71, 21.74, -177.05, 9.49, 0.000, 0.000, 0.000, 17:46:48.562
177, 24.29, 45.53, -178.38, 10.63, 0.000, 0.000, 0.000, 17:46:48.576
178, 35.21, 49.09, -187.85, 10.17, 0.000, 0.000, 0.000, 17:46:48.576
179, 14.84, 24.12, -185.20, 10.54, 0.000, 0.000, 0.000, 17:46:48.577
180, 13.12, 49.30, -178.57, 8.97, 0.000, 0.000, 0.000, 17:46:48.577
181, 22.04, 45.99, -176.07, 8.75, 0.000, 0.000, 0.000, 17:46:48.591
182, -1.48, 37.66, -185.17, 15.98, 0.000, 0.000, 0.000, 17:46:48.591
183, 8.98, 31.61, -182.51, 12.08, 0.000, 0.000, 0.000, 17:46:48.606
184, 50.38, 49.55, -184.76, 6.35, 0.000, 0.000, 0.000, 17:46:48.606
185, 39.48, 61.97, -189.65, 11.68, 0.000, 0.000, 0.000, 17:46:48.606
186, -13.38, 13.88, -206.47, 9.75, 0.000, 0.000, 0.000, 17:46:48.607
187, 1.92, 62.18, -170.71, 7.35, 0.000, 0.000, 0.000, 17:46:48.621
188, 16.95, 45.97, -170.32, 9.64, 0.000, 0.000, 0.000, 17:46:48.621
189, 9.89, 33.41, -181.77, 10.72, 0.000, 0.000, 0.000, 17:46:48.636
190, 30.17, 50.80, -182.32, 13.88, 0.000, 0.000, 0.000, 17:46:48.636
191, 42.37, 58.83, -182.53, 5.00, 0.000, 0.000, 0.000, 17:46:48.636
192, 37.03, 52.45, -175.68, 9.98, 0.000, 0.000, 0.000, 17:46:48.637
193, 5.25, 15.90, -187.57, 8.98, 0.000, 0.000, 0.000, 17:46:48.651
194, 30.09, 25.48, -190.89, 9.13, 0.000, 0.000, 0.000, 17:46:48.651
195, 49.97, 60.39, -187.41, 11.95, 0.000, 0.000, 0.000, 17:46:48.666
196, 36.91, 64.18, -186.24, 6.91, 0.000, 0.000, 0.000, 17:46:48.666
197, 44.62, 53.33, -180.84, 9.06, 0.000, 0.000, 0.000, 17:46:48.667
198, 31.01, 31.40, -197.66, 12.64, 0.000, 0.000, 0.000, 17:46:48.667
199, 31.30, 56.62, -210.67, 10.50, 0.000, 0.000, 0.000, 17:46:48.681
200, 25.76, 35.81, -177.30, 10.64, 0.000, 0.000, 0.000, 17:46:48.681
0, 51.83, 65.92, -159.07, 8.38, 0.000, 0.000, 0.000, 17:46:48.681
1, 73.36, 73.72, -181.24, 13.19, 0.000, 0.000, 0.000, 17:46:48.696
2, 14.90, 68.08, -179.65, 9.14, 0.000, 0.000, 0.000, 17:46:48.696
3, 18.88, 53.67, -180.98, 9.95, 0.000, 0.000, 0.000, 17:46:48.711
4, 37.88, 50.66, -190.44, 9.74, 0.000, 0.000, 0.000, 17:46:48.711
5, 25.35, 56.61, -206.33, 7.31, 0.000, 0.000, 0.000, 17:46:48.711
6, 34.09, 50.32, -176.43, 8.61, 0.000, 0.000, 0.000, 17:46:48.712
7, 37.88, 54.24, -163.12, 11.63, 0.000, 0.000, 0.000, 17:46:48.726
8, 8.11, 40.94, -192.37, 9.30, 0.000, 0.000, 0.000, 17:46:48.726
9, 2.20, 60.95, -176.23, 12.90, 0.000, 0.000, 0.000, 17:46:48.741
10, -10.67, 45.24, -169.11, 6.24, 0.000, 0.000, 0.000, 17:46:48.742
11, -59.10, 59.82, -188.01, 11.00, 0.000, 0.000, 0.000, 17:46:48.742
12, -54.64, 78.32, -169.26, 10.83, 0.000, 0.000, 0.000, 17:46:48.742
13, -16.36, 42.98, -181.98, 12.59, 0.000, 0.000, 0.000, 17:46:48.771
14, -22.07, 55.47, -170.95, 7.06, 0.000, 0.000, 0.000, 17:46:48.771
15, -81.89, 66.02, -178.95, 11.12, 0.000, 0.000, 0.000, 17:46:48.772
16, -44.42, 62.84, -164.99, 8.04, 0.000, 0.000, 0.000, 17:46:48.772
17, 6.66, 50.34, -175.84, 7.60, 0.000, 0.000, 0.000, 17:46:48.772
18, -6.82, 51.30, -190.24, 10.89, 0.000, 0.000, 0.000, 17:46:48.772
19, -22.24, 40.58, -173.07, 13.46, 0.000, 0.000, 0.000, 17:46:48.786
20, 3.29, 43.18, -174.03, 10.81, 0.000, 0.000, 0.000, 17:46:48.786
21, -14.57, 35.14, -177.71, 8.78, 0.000, 0.000, 0.000, 17:46:48.801
22, -21.23, 38.05, -171.33, 8.40, 0.000, 0.000, 0.000, 17:46:48.801
23, 6.15, 40.13, -188.68, 10.12, 0.000, 0.000, 0.000, 17:46:48.802
24, 31.51, 57.79, -180.68, 11.34, 0.000, 0.000, 0.000, 17:46:48.802
25, 8.80, 51.76, -185.15, 8.93, 0.000, 0.000, 0.000, 17:46:48.816
26, -11.64, 31.94, -201.69, 7.97, 0.000, 0.000, 0.000, 17:46:48.816
27, 37.92, 47.94, -185.07, 9.12, 0.000, 0.000, 0.000, 17:46:48.831
28, 7.79, 48.79, -182.89, 11.08, 0.000, 0.000, 0.000, 17:46:48.832
29, -21.45, 23.98, -199.41, 10.07, 0.000, 0.000, 0.000, 17:46:48.832
30, 37.49, 47.61, -169.28, 10.70, 0.000, 0.000, 0.000, 17:46:48.832
31, 22.60, 48.96, -151.83, 9.03, 0.000, 0.000, 0.000, 17:46:48.846
32, -1.04, 44.29, -159.48, 8.89, 0.000, 0.000, 0.000, 17:46:48.846
33, 3.93, 30.73, -170.37, 6.99, 0.000, 0.000, 0.000, 17:46:48.861
34, 12.08, 21.66, -172.40, 8.69, 0.000, 0.000, 0.000, 17:46:48.861
35, -2.78, 29.66, -170.99, 7.19, 0.000, 0.000, 0.000, 17:46:48.861
36, 20.30, 28.87, -161.95, 8.01, 0.000, 0.000, 0.000, 17:46:48.862
37, 24.99, 24.82, -172.70, 4.71, 0.000, 0.000, 0.000, 17:46:48.876
38, 35.06, 8.65, -175.62, 6.31, 0.000, 0.000, 0.000, 17:46:48.876
39, 11.05, 26.46, -179.26, 12.48, 0.000, 0.000, 0.000, 17:46:48.891
40, 25.28, 29.85, -185.99, 10.83, 0.000, 0.000, 0.000, 17:46:48.891
41, 32.00, 23.16, -173.73, 10.84, 0.000, 0.000, 0.000, 17:46:48.892
42, -10.11, 17.06, -176.05, 9.81, 0.000, 0.000, 0.000, 17:46:48.892
43, -2.77, 28.99, -208.11, 11.66, 0.000, 0.000, 0.000, 17:46:48.906
44, 40.02, 29.08, -179.23, 14.71, 0.000, 0.000, 0.000, 17:46:48.906
45, -0.09, 24.09, -188.42, 7.81, 0.000, 0.000, 0.000, 17:46:48.921
46, 3.51, 37.28, -177.88, 13.15, 0.000, 0.000, 0.000, 17:46:48.921
47, 6.94, 26.41, -182.28, 10.39, 0.000, 0.000, 0.000, 17:46:48.922
48, 25.99, 30.92, -199.41, 7.54, 0.000, 0.000, 0.000, 17:46:48.922
49, 6.32, 25.65, -208.83, 10.17, 0.000, 0.000, 0.000, 17:46:48.936
50, 10.57, 12.57, -171.21, 13.62, 0.000, 0.000, 0.000, 17:46:48.936
51, 52.87, 35.14, -166.67, 12.06, 0.000, 0.000, 0.000, 17:46:48.951
52, 2.17, 30.53, -193.09, 14.80, 0.000, 0.000, 0.000, 17:46:48.951
53, -5.73, 49.17, -195.44, 10.25, 0.000, 0.000, 0.000, 17:46:48.951
54, 21.76, 51.21, -148.18, 8.26, 0.000, 0.000, 0.000, 17:46:48.952
55, 0.56, 29.47, -158.14, 10.03, 0.000, 0.000, 0.000, 17:46:48.966
56, 12.27, 38.14, -161.61, 10.01, 0.000, 0.000, 0.000, 17:46:48.966
57, 29.28, 31.21, -168.21, 9.41, 0.000, 0.000, 0.000, 17:46:48.981
58, -4.10, 31.19, -186.13, 9.75, 0.000, 0.000, 0.000, 17:46:48.982
59, -0.55, 42.89, -175.89, 12.12, 0.000, 0.000, 0.000, 17:46:48.982
60, 31.99, 26.34, -174.53, 9.54, 0.000, 0.000, 0.000, 17:46:48.982
61, 28.43, 19.14, -200.14, 12.39, 0.000, 0.000, 0.000, 17:46:48.996
62, 9.85, 48.18, -164.08, 7.20, 0.000, 0.000, 0.000, 17:46:48.996
63, 38.16, 53.88, -167.74, 10.74, 0.000, 0.000, 0.000, 17:46:49.011
64, 16.07, 47.13, -165.73, 12.27, 0.000, 0.000, 0.000, 17:46:49.012
65, 15.45, 37.81, -175.70, 12.49, 0.000, 0.000, 0.000, 17:46:49.012
66, -18.42, 44.47, -176.17, 8.74, 0.000, 0.000, 0.000, 17:46:49.012
67, 23.20, 34.61, -185.74, 7.16, 0.000, 0.000, 0.000, 17:46:49.026
68, 18.69, 41.00, -172.97, 7.45, 0.000, 0.000, 0.000, 17:46:49.026
69, 6.18, 55.98, -173.20, 10.18, 0.000, 0.000, 0.000, 17:46:49.041
70, 15.36, 42.49, -174.45, 10.19, 0.000, 0.000, 0.000, 17:46:49.041
71, -0.62, 26.57, -192.68, 7.37, 0.000, 0.000, 0.000, 17:46:49.041
72, -35.71, 37.70, -184.03, 6.09, 0.000, 0.000, 0.000, 17:46:49.041
73, 27.96, 50.57, -172.34, 10.45, 0.000, 0.000, 0.000, 17:46:49.056
74, 25.23, 39.50, -172.00, 5.75, 0.000, 0.000, 0.000, 17:46:49.056
75, 3.63, 37.64, -183.98, 13.65, 0.000, 0.000, 0.000, 17:46:49.071
76, 5.24, 31.44, -179.69, 7.81, 0.000, 0.000, 0.000, 17:46:49.071
77, 36.92, 35.18, -175.95, 11.67, 0.000, 0.000, 0.000, 17:46:49.072
78, 40.03, 44.75, -170.14, 7.62, 0.000, 0.000, 0.000, 17:46:49.072
79, -9.53, 34.95, -178.72, 8.50, 0.000, 0.000, 0.000, 17:46:49.086
80, 3.72, 26.20, -184.99, 7.03, 0.000, 0.000, 0.000, 17:46:49.086
81, 61.94, 21.69, -190.79, 12.46, 0.000, 0.000, 0.000, 17:46:49.116
82, 145.62, 21.69, -192.33, 12.67, 0.000, 0.000, 0.000, 17:46:49.116
83, 180.01, 44.62, -178.80, 7.92, 0.000, 0.000, 0.000, 17:46:49.116
84, 205.96, 34.71, -194.82, 9.89, 0.000, 0.000, 0.000, 17:46:49.117
85, 86.00, 34.73, -196.09, 11.92, 0.000, 0.000, 0.000, 17:46:49.117
86, -56.40, 34.81, -188.92, 9.81, 0.000, 0.000, 0.000, 17:46:49.117
87, -176.83, 47.57, -179.47, 10.39, 0.000, 0.000, 0.000, 17:46:49.131
88, -156.18, 40.75, -199.69, 9.99, 0.000, 0.000, 0.000, 17:46:49.131
89, -37.58, 42.41, -180.11, 6.48, 0.000, 0.000, 0.000, 17:46:49.132
90, 37.90, 42.29, -182.63, 8.24, 0.000, 0.000, 0.000, 17:46:49.132
91, -1.87, 41.79, -170.55, 10.19, 0.000, 0.000, 0.000, 17:46:49.146
92, -8.96, 42.71, -159.49, 8.36, 0.000, 0.000, 0.000, 17:46:49.146
93, 24.00, 39.43, -161.29, 10.81, 0.000, 0.000, 0.000, 17:46:49.161
94, 32.86, 39.67, -177.86, 10.73, 0.000, 0.000, 0.000, 17:46:49.161
95, -36.12, 15.48, -182.99, 10.78, 0.000, 0.000, 0.000, 17:46:49.162
96, -27.88, 57.52, -189.62, 10.64, 0.000, 0.000, 0.000, 17:46:49.162
97, 31.40, 37.33, -181.47, 12.85, 0.000, 0.000, 0.000, 17:46:49.176
98, 27.77, 43.05, -179.35, 7.81, 0.000, 0.000, 0.000, 17:46:49.176
99, 8.90, 42.84, -178.64, 11.00, 0.000, 0.000, 0.000, 17:46:49.191
100, 14.86, 39.84, -180.14, 13.10, 0.000, 0.000, 0.000, 17:46:49.191
101, 18.64, 26.50, -178.69, 8.91, 0.000, 0.000, 0.000, 17:46:49.192
102, 9.93, 35.22, -176.09, 9.94, 0.000, 0.000, 0.000, 17:46:49.192
103, 23.02, 46.98, -174.39, 11.70, 0.000, 0.000, 0.000, 17:46:49.221
104, 30.89, 51.46, -171.59, 10.51, 0.000, 0.000, 0.000, 17:46:49.221
105, 6.66, 35.09, -184.93, 11.85, 0.000, 0.000, 0.000, 17:46:49.222
106, 41.43, 27.16, -195.36, 16.57, 0.000, 0.000, 0.000, 17:46:49.222
107, 45.11, 23.56, -178.66, 13.08, 0.000, 0.000, 0.000, 17:46:49.222
108, -8.36, 37.59, -195.48, 9.39, 0.000, 0.000, 0.000, 17:46:49.223
109, -23.73, 56.32, -190.31, 10.14, 0.000, 0.000, 0.000, 17:46:49.236
110, 42.73, 40.06, -179.55, 8.10, 0.000, 0.000, 0.000, 17:46:49.236
111, 54.47, 50.40, -187.17, 10.74, 0.000, 0.000, 0.000, 17:46:49.251
112, 53.76, 56.53, -183.96, 7.78, 0.000, 0.000, 0.000, 17:46:49.251
113, 36.19, 68.39, -189.13, 9.04, 0.000, 0.000, 0.000, 17:46:49.251
114, 8.43, 61.23, -204.94, 10.81, 0.000, 0.000, 0.000, 17:46:49.252
115, 30.07, 38.05, -185.33, 13.03, 0.000, 0.000, 0.000, 17:46:49.266
116, 15.27, 45.33, -187.88, 12.20, 0.000, 0.000, 0.000, 17:46:49.266
117, 67.50, 45.50, -183.77, 11.18, 0.000, 0.000, 0.000, 17:46:49.281
118, 63.77, 29.55, -199.64, 9.77, 0.000, 0.000, 0.000, 17:46:49.281
119, 29.52, 65.75, -192.35, 13.22, 0.000, 0.000, 0.000, 17:46:49.281
120, 18.37, 50.55, -168.20, 9.22, 0.000, 0.000, 0.000, 17:46:49.282
121, 35.91, 36.20, -182.08, 12.79, 0.000, 0.000, 0.000, 17:46:49.296
122, 56.56, 69.52, -187.87, 8.18, 0.000, 0.000, 0.000, 17:46:49.296
123, 30.84, 63.62, -189.31, 13.06, 0.000, 0.000, 0.000, 17:46:49.311
124, 5.98, 57.27, -180.17, 13.76, 0.000, 0.000, 0.000, 17:46:49.311
125, 37.37, 56.80, -178.29, 17.62, 0.000, 0.000, 0.000, 17:46:49.312
126, 49.92, 51.24, -195.22, 11.17, 0.000, 0.000, 0.000, 17:46:49.312
127, 44.74, 44.13, -193.25, 10.05, 0.000, 0.000, 0.000, 17:46:49.326
128, 1.35, 65.53, -190.51, 10.38, 0.000, 0.000, 0.000, 17:46:49.326
129, -27.75, 42.46, -195.26, 8.80, 0.000, 0.000, 0.000, 17:46:49.341
130, -27.90, 32.57, -183.45, 9.91, 0.000, 0.000, 0.000, 17:46:49.341
131, -13.25, 49.54, -182.42, 13.24, 0.000, 0.000, 0.000, 17:46:49.342
132, -27.83, 54.25, -176.90, 12.01, 0.000, 0.000, 0.000, 17:46:49.342
133, -52.87, 54.67, -193.81, 8.47, 0.000, 0.000, 0.000, 17:46:49.356
134, -51.76, 46.36, -173.61, 8.43, 0.000, 0.000, 0.000, 17:46:49.356
135, -37.24, 25.48, -173.29, 12.63, 0.000, 0.000, 0.000, 17:46:49.371
136, -16.13, 55.56, -181.63, 10.93, 0.000, 0.000, 0.000, 17:46:49.371
137, -14.19, 62.22, -172.78, 9.61, 0.000, 0.000, 0.000, 17:46:49.372
138, -44.51, 54.80, -183.05, 9.99, 0.000, 0.000, 0.000, 17:46:49.372
139, -37.05, 45.86, -186.16, 10.18, 0.000, 0.000, 0.000, 17:46:49.386
140, -24.06, 41.77, -194.69, 7.46, 0.000, 0.000, 0.000, 17:46:49.386
141, 19.62, 58.50, -190.01, 12.32, 0.000, 0.000, 0.000, 17:46:49.401
142, -1.29, 46.14, -190.30, 11.50, 0.000, 0.000, 0.000, 17:46:49.401
143, 9.76, 33.09, -177.25, 7.43, 0.000, 0.000, 0.000, 17:46:49.402
144, 0.71, 39.52, -188.51, 6.80, 0.000, 0.000, 0.000, 17:46:49.402
145, -8.15, 42.26, -184.43, 7.17, 0.000, 0.000, 0.000, 17:46:49.416
146, 7.09, 55.60, -180.59, 5.85, 0.000, 0.000, 0.000, 17:46:49.417
147, 4.03, 46.22, -192.35, 14.84, 0.000, 0.000, 0.000, 17:46:49.431
148, 24.49, 18.13, -195.99, 8.90, 0.000, 0.000, 0.000, 17:46:49.433
149, 3.36, 37.96, -187.71, 12.80, 0.000, 0.000, 0.000, 17:46:49.433
150, 28.07, 46.37, -177.60, 12.23, 0.000, 0.000, 0.000, 17:46:49.433
151, 22.78, 47.60, -180.79, 13.34, 0.000, 0.000, 0.000, 17:46:49.445
152, -10.06, 59.04, -172.89, 8.88, 0.000, 0.000, 0.000, 17:46:49.446
153, 15.19, 47.49, -175.76, 11.27, 0.000, 0.000, 0.000, 17:46:49.461
154, 25.97, 43.96, -193.58, 11.26, 0.000, 0.000, 0.000, 17:46:49.461
155, 28.43, 47.46, -196.72, 11.35, 0.000, 0.000, 0.000, 17:46:49.461
156, 16.30, 36.40, -198.43, 10.45, 0.000, 0.000, 0.000, 17:46:49.462
157, 4.41, 40.32, -192.75, 11.09, 0.000, 0.000, 0.000, 17:46:49.479
158, 11.51, 42.77, -176.65, 11.49, 0.000, 0.000, 0.000, 17:46:49.479
159, 4.64, 49.76, -178.99, 6.32, 0.000, 0.000, 0.000, 17:46:49.491
160, 45.52, 52.82, -186.89, 10.93, 0.000, 0.000, 0.000, 17:46:49.491
161, -0.42, 40.92, -182.76, 13.89, 0.000, 0.000, 0.000, 17:46:49.492
162, -9.74, 37.51, -190.57, 8.95, 0.000, 0.000, 0.000, 17:46:49.492
163, -0.21, 43.70, -187.10, 12.57, 0.000, 0.000, 0.000, 17:46:49.506
164, 56.60, 32.37, -182.56, 8.56, 0.000, 0.000, 0.000, 17:46:49.506
165, 15.95, 41.21, -194.70, 10.27, 0.000, 0.000, 0.000, 17:46:49.536
166, 18.25, 42.81, -182.87, 11.24, 0.000, 0.000, 0.000, 17:46:49.537
167, 5.16, 32.03, -179.56, 10.54, 0.000, 0.000, 0.000, 17:46:49.537
168, 9.35, 28.04, -196.20, 8.25, 0.000, 0.000, 0.000, 17:46:49.537
169, 16.03, 33.17, -198.65, 15.85, 0.000, 0.000, 0.000, 17:46:49.537
170, 29.98, 23.45, -194.92, 10.70, 0.000, 0.000, 0.000, 17:46:49.537
171, 8.90, 40.56, -196.21, 5.39, 0.000, 0.000, 0.000, 17:46:49.551
172, -21.55, 51.86, -176.16, 8.21, 0.000, 0.000, 0.000, 17:46:49.551
173, 4.75, 47.64, -198.42, 9.80, 0.000, 0.000, 0.000, 17:46:49.552
174, 41.98, 17.38, -187.17, 6.75, 0.000, 0.000, 0.000, 17:46:49.552
175, 27.89, 38.50, -161.50, 15.74, 0.000, 0.000, 0.000, 17:46:49.566
176, 5.45, 51.44, -172.73, 4.47, 0.000, 0.000, 0.000, 17:46:49.566
177, 8.27, 51.08, -166.02, 11.69, 0.000, 0.000, 0.000, 17:46:49.581
178, 27.43, 48.46, -174.24, 11.08, 0.000, 0.000, 0.000, 17:46:49.581
179, 11.55, 47.67, -196.81, 7.66, 0.000, 0.000, 0.000, 17:46:49.582
180, 17.10, 15.73, -216.85, 11.80, 0.000, 0.000, 0.000, 17:46:49.582
181, 43.40, 51.66, -159.08, 10.01, 0.000, 0.000, 0.000, 17:46:49.596
182, -4.35, 59.50, -156.30, 8.48, 0.000, 0.000, 0.000, 17:46:49.596
183, -0.39, 35.21, -175.74, 12.67, 0.000, 0.000, 0.000, 17:46:49.611
184, 21.37, 52.32, -175.67, 11.40, 0.000, 0.000, 0.000, 17:46:49.611
185, -4.84, 61.80, -173.17, 9.75, 0.000, 0.000, 0.000, 17:46:49.611
186, 1.22, 63.44, -176.16, 6.34, 0.000, 0.000, 0.000, 17:46:49.612
187, 27.16, 44.19, -198.12, 8.90, 0.000, 0.000, 0.000, 17:46:49.641
188, 17.35, 45.04, -185.82, 8.53, 0.000, 0.000, 0.000, 17:46:49.641
189, -0.01, 48.51, -176.28, 11.15, 0.000, 0.000, 0.000, 17:46:49.641
190, 20.63, 18.41, -179.62, 12.89, 0.000, 0.000, 0.000, 17:46:49.642
191, 20.94, 40.32, -182.07, 15.00, 0.000, 0.000, 0.000, 17:46:49.642
192, -12.44, 50.16, -189.49, 7.33, 0.000, 0.000, 0.000, 17:46:49.642
193, 36.31, 49.61, -220.01, 7.40, 0.000, 0.000, 0.000, 17:46:49.656
194, 1.95, 35.77, -227.10, 9.78, 0.000, 0.000, 0.000, 17:46:49.656
195, -16.34, 34.47, -177.25, 12.98, 0.000, 0.000, 0.000, 17:46:49.671
196, -8.05, 30.11, -152.66, 11.07, 0.000, 0.000, 0.000, 17:46:49.671
197, 55.58, 47.18, -162.75, 8.51, 0.000, 0.000, 0.000, 17:46:49.672
198, 136.98, 47.57, -179.66, 11.55, 0.000, 0.000, 0.000, 17:46:49.672
199, 164.34, 19.61, -165.55, 9.44, 0.000, 0.000, 0.000, 17:46:49.686
200, 190.34, 48.62, -213.99, 8.62, 0.000, 0.000, 0.000, 17:46:49.687
0, 119.94, 58.57, -183.19, 5.85, 0.000, 0.000, 0.000, 17:46:49.687
1, -18.87, 43.41, -176.78, 9.18, 0.000, 0.000, 0.000, 17:46:49.701
2, -113.31, 43.83, -158.72, 5.92, 0.000, 0.000, 0.000, 17:46:49.701
3, -153.70, 31.73, -179.78, 11.83, 0.000, 0.000, 0.000, 17:46:49.715
4, -78.95, 53.69, -168.88, 12.27, 0.000, 0.000, 0.000, 17:46:49.716
5, -3.41, 67.82, -141.87, 11.11, 0.000, 0.000, 0.000, 17:46:49.716
6, 18.43, 56.50, -157.82, 10.34, 0.000, 0.000, 0.000, 17:46:49.716
7, 1.49, 24.60, -179.77, 8.10, 0.000, 0.000, 0.000, 17:46:49.746
8, 16.89, 65.07, -205.44, 5.42, 0.000, 0.000, 0.000, 17:46:49.746
9, 2.83, 36.85, -199.08, 8.02, 0.000, 0.000, 0.000, 17:46:49.747
10, -0.93, 15.60, -144.61, 7.29, 0.000, 0.000, 0.000, 17:46:49.747
11, -2.50, 40.87, -128.82, 2.25, 0.000, 0.000, 0.000, 17:46:49.747
12, 13.64, 30.06, -154.65, 4.91, 0.000, 0.000, 0.000, 17:46:49.747
13, 27.25, 19.82, -164.88, 10.27, 0.000, 0.000, 0.000, 17:46:49.761
14, -15.71, 22.76, -165.59, 10.56, 0.000, 0.000, 0.000, 17:46:49.761
15, 11.43, 22.90, -167.25, 8.70, 0.000, 0.000, 0.000, 17:46:49.776
16, 20.13, 19.89, -166.06, 11.95, 0.000, 0.000, 0.000, 17:46:49.777
17, 29.81, 29.58, -169.62, 6.05, 0.000, 0.000, 0.000, 17:46:49.777
18, 5.31, 15.54, -171.78, 4.73, 0.000, 0.000, 0.000, 17:46:49.777
19, 22.88, 17.24, -178.85, 7.36, 0.000, 0.000, 0.000, 17:46:49.791
20, 22.94, 23.85, -198.87, 10.89, 0.000, 0.000, 0.000, 17:46:49.791
21, 29.61, 27.24, -175.29, 9.91, 0.000, 0.000, 0.000, 17:46:49.806
22, -4.39, 25.80, -173.42, 10.19, 0.000, 0.000, 0.000, 17:46:49.807
23, 29.99, 19.21, -187.07, 7.74, 0.000, 0.000, 0.000, 17:46:49.807
24, 37.09, 24.42, -193.84, 9.76, 0.000, 0.000, 0.000, 17:46:49.808
25, 13.40, 34.59, -183.53, 4.76, 0.000, 0.000, 0.000, 17:46:49.821
26, 37.26, 26.73, -183.40, 8.72, 0.000, 0.000, 0.000, 17:46:49.821
27, 39.10, 27.08, -191.40, 6.74, 0.000, 0.000, 0.000, 17:46:49.836
28, 28.50, 30.14, -187.81, 9.56, 0.000, 0.000, 0.000, 17:46:49.836
29, 25.20, 37.11, -187.59, 13.86, 0.000, 0.000, 0.000, 17:46:49.836
30, 49.79, 20.50, -190.80, 6.47, 0.000, 0.000, 0.000, 17:46:49.837
31, 23.52, 11.54, -196.78, 11.55, 0.000, 0.000, 0.000, 17:46:49.852
32, 27.52, 22.83, -191.34, 5.16, 0.000, 0.000, 0.000, 17:46:49.853
33, 48.69, 31.76, -185.60, 8.81, 0.000, 0.000, 0.000, 17:46:49.866
34, 35.54, 30.66, -193.39, 14.94, 0.000, 0.000, 0.000, 17:46:49.866
35, 71.87, 45.68, -194.04, 12.21, 0.000, 0.000, 0.000, 17:46:49.866
36, 71.56, 31.12, -176.63, 7.68, 0.000, 0.000, 0.000, 17:46:49.867
37, 17.01, 37.04, -190.63, 7.67, 0.000, 0.000, 0.000, 17:46:49.880
38, 14.61, 44.71, -184.16, 9.76, 0.000, 0.000, 0.000, 17:46:49.881
39, 43.21, 36.11, -187.86, 9.03, 0.000, 0.000, 0.000, 17:46:49.896
40, 51.34, 41.55, -196.40, 11.43, 0.000, 0.000, 0.000, 17:46:49.896
41, 14.77, 36.63, -198.01, 9.23, 0.000, 0.000, 0.000, 17:46:49.896
42, 36.82, 42.98, -202.17, 4.51, 0.000, 0.000, 0.000, 17:46:49.897
43, -17.78, 36.86, -197.92, 12.69, 0.000, 0.000, 0.000, 17:46:49.911
44, 11.18, 36.08, -204.73, 9.74, 0.000, 0.000, 0.000, 17:46:49.911
45, -40.84, 39.18, -203.87, 11.31, 0.000, 0.000, 0.000, 17:46:49.926
46, -16.25, 49.53, -200.32, 8.62, 0.000, 0.000, 0.000, 17:46:49.926
47, -28.55, 45.67, -199.38, 12.06, 0.000, 0.000, 0.000, 17:46:49.926
48, -46.17, 32.87, -199.87, 7.52, 0.000, 0.000, 0.000, 17:46:49.926
49, -48.33, 53.73, -180.49, 6.43, 0.000, 0.000, 0.000, 17:46:49.941
50, -28.59, 38.39, -182.82, 10.91, 0.000, 0.000, 0.000, 17:46:49.942
51, -41.50, 50.60, -194.21, 10.12, 0.000, 0.000, 0.000, 17:46:49.956
52, -29.29, 52.28, -185.30, 12.98, 0.000, 0.000, 0.000, 17:46:49.956
53, -3.20, 42.96, -177.58, 13.45, 0.000, 0.000, 0.000, 17:46:49.957
54, -21.70, 38.78, -183.30, 9.84, 0.000, 0.000, 0.000, 17:46:49.957
55, -22.12, 40.82, -184.36, 15.83, 0.000, 0.000, 0.000, 17:46:49.971
56, -10.15, 33.35, -183.57, 14.13, 0.000, 0.000, 0.000, 17:46:49.972
57, -7.22, 29.42, -188.97, 11.89, 0.000, 0.000, 0.000, 17:46:49.986
58, 8.94, 35.59, -188.04, 13.59, 0.000, 0.000, 0.000, 17:46:49.986
59, 13.64, 36.72, -188.29, 12.76, 0.000, 0.000, 0.000, 17:46:49.987
60, 4.95, 44.31, -193.95, 10.99, 0.000, 0.000, 0.000, 17:46:49.987
61, -35.25, 35.62, -185.13, 9.08, 0.000, 0.000, 0.000, 17:46:50.001
62, 0.42, 44.67, -185.31, 11.05, 0.000, 0.000, 0.000, 17:46:50.001
63, 37.27, 25.95, -195.82, 14.71, 0.000, 0.000, 0.000, 17:46:50.019
64, 18.31, 35.19, -173.97, 7.96, 0.000, 0.000, 0.000, 17:46:50.020
65, 16.71, 41.01, -178.43, 6.32, 0.000, 0.000, 0.000, 17:46:50.020
66, 29.29, 39.55, -173.39, 8.39, 0.000, 0.000, 0.000, 17:46:50.020
67, -4.20, 37.76, -171.05, 8.80, 0.000, 0.000, 0.000, 17:46:50.035
68, -5.11, 49.77, -172.49, 9.07, 0.000, 0.000, 0.000, 17:46:50.035
69, 48.70, 45.43, -177.27, 12.04, 0.000, 0.000, 0.000, 17:46:50.053
70, 29.81, 44.47, -186.02, 10.43, 0.000, 0.000, 0.000, 17:46:50.054
71, -5.91, 38.49, -179.61, 10.14, 0.000, 0.000, 0.000, 17:46:50.054
72, 1.24, 38.69, -182.30, 10.23, 0.000, 0.000, 0.000, 17:46:50.054
73, 29.92, 41.72, -175.52, 11.21, 0.000, 0.000, 0.000, 17:46:50.061
74, 14.61, 35.12, -189.80, 13.34, 0.000, 0.000, 0.000, 17:46:50.061
75, 13.27, 56.14, -176.17, 13.16, 0.000, 0.000, 0.000, 17:46:50.076
76, 15.35, 37.79, -189.25, 7.81, 0.000, 0.000, 0.000, 17:46:50.076
77, 28.60, 36.79, -204.07, 6.02, 0.000, 0.000, 0.000, 17:46:50.076
78, 17.64, 34.29, -179.11, 4.12, 0.000, 0.000, 0.000, 17:46:50.077
79, 5.44, 48.24, -178.85, 9.62, 0.000, 0.000, 0.000, 17:46:50.091
80, 6.21, 41.46, -191.20, 6.91, 0.000, 0.000, 0.000, 17:46:50.091
81, -5.15, 42.13, -183.71, 7.55, 0.000, 0.000, 0.000, 17:46:50.106
82, 34.39, 36.06, -178.70, 6.85, 0.000, 0.000, 0.000, 17:46:50.106
83, 49.08, 34.26, -188.58, 6.15, 0.000, 0.000, 0.000, 17:46:50.106
84, -18.33, 32.84, -187.99, 11.99, 0.000, 0.000, 0.000, 17:46:50.107
85, -6.03, 29.88, -199.88, 9.07, 0.000, 0.000, 0.000, 17:46:50.122
86, 32.98, 40.38, -187.97, 7.69, 0.000, 0.000, 0.000, 17:46:50.122
87, 33.06, 40.93, -176.03, 11.05, 0.000, 0.000, 0.000, 17:46:50.136
88, -25.84, 39.05, -184.43, 6.24, 0.000, 0.000, 0.000, 17:46:50.136
89, 4.78, 35.45, -186.22, 8.63, 0.000, 0.000, 0.000, 17:46:50.137
90, 35.81, 31.80, -189.76, 7.84, 0.000, 0.000, 0.000, 17:46:50.137
91, 17.10, 44.94, -196.41, 19.27, 0.000, 0.000, 0.000, 17:46:50.153
92, 50.29, 39.73, -192.14, 8.17, 0.000, 0.000, 0.000, 17:46:50.153
93, 30.15, 40.02, -190.71, 10.92, 0.000, 0.000, 0.000, 17:46:50.166
94, -11.00, 41.66, -204.84, 10.40, 0.000, 0.000, 0.000, 17:46:50.166
95, -7.60, 51.24, -190.63, 10.64, 0.000, 0.000, 0.000, 17:46:50.167
96, 39.66, 33.63, -186.65, 10.28, 0.000, 0.000, 0.000, 17:46:50.167
97, 11.60, 36.77, -180.24, 13.89, 0.000, 0.000, 0.000, 17:46:50.181
98, 1.02, 52.65, -191.24, 8.93, 0.000, 0.000, 0.000, 17:46:50.181
99, 22.80, 44.75, -187.89, 10.69, 0.000, 0.000, 0.000, 17:46:50.196
100, 4.52, 40.48, -186.11, 8.02, 0.000, 0.000, 0.000, 17:46:50.196
101, -9.29, 34.35, -183.95, 11.33, 0.000, 0.000, 0.000, 17:46:50.196
102, -5.51, 32.15, -191.02, 10.46, 0.000, 0.000, 0.000, 17:46:50.197
103, 24.47, 25.11, -182.45, 11.48, 0.000, 0.000, 0.000, 17:46:50.211
104, 9.76, 41.12, -176.49, 7.73, 0.000, 0.000, 0.000, 17:46:50.211
105, 16.33, 51.65, -211.72, 5.04, 0.000, 0.000, 0.000, 17:46:50.226
106, 23.56, 38.68, -180.33, 8.88, 0.000, 0.000, 0.000, 17:46:50.226
107, -1.42, 34.80, -179.73, 7.73, 0.000, 0.000, 0.000, 17:46:50.226
108, 6.28, 54.65, -181.67, 5.74, 0.000, 0.000, 0.000, 17:46:50.226
109, 26.96, 53.88, -185.01, 9.12, 0.000, 0.000, 0.000, 17:46:50.241
110, 26.35, 43.94, -187.61, 7.77, 0.000, 0.000, 0.000, 17:46:50.241
111, 1.28, 41.04, -197.17, 15.80, 0.000, 0.000, 0.000, 17:46:50.257
112, -1.01, 35.09, -185.04, 11.16, 0.000, 0.000, 0.000, 17:46:50.257
113, 43.30, 15.77, -197.64, 11.51, 0.000, 0.000, 0.000, 17:46:50.258
114, 146.37, 35.78, -182.03, 10.04, 0.000, 0.000, 0.000, 17:46:50.258
115, 171.32, 34.57, -193.29, 7.76, 0.000, 0.000, 0.000, 17:46:50.271
116, 194.64, 25.57, -198.35, 7.60, 0.000, 0.000, 0.000, 17:46:50.271
117, 112.48, 21.18, -202.60, 6.03, 0.000, 0.000, 0.000, 17:46:50.286
118, -72.13, 47.53, -181.40, 10.29, 0.000, 0.000, 0.000, 17:46:50.286
119, -153.33, 43.82, -191.65, 10.16, 0.000, 0.000, 0.000, 17:46:50.286
120, -135.90, 43.41, -182.93, 8.70, 0.000, 0.000, 0.000, 17:46:50.286
121, -40.92, 58.99, -166.98, 9.67, 0.000, 0.000, 0.000, 17:46:50.301
122, 22.67, 51.83, -166.44, 7.57, 0.000, 0.000, 0.000, 17:46:50.301
123, 42.82, 46.54, -169.94, 10.40, 0.000, 0.000, 0.000, 17:46:50.316
124, 5.86, 38.91, -177.26, 12.05, 0.000, 0.000, 0.000, 17:46:50.316
125, -26.56, 24.48, -186.70, 5.39, 0.000, 0.000, 0.000, 17:46:50.316
126, 9.84, 61.01, -186.43, 6.75, 0.000, 0.000, 0.000, 17:46:50.317
127, -16.60, 49.25, -187.30, 8.09, 0.000, 0.000, 0.000, 17:46:50.331
128, -11.82, 50.98, -186.81, 13.56, 0.000, 0.000, 0.000, 17:46:50.331
129, -0.12, 56.40, -181.18, 7.72, 0.000, 0.000, 0.000, 17:46:50.346
130, 23.96, 38.92, -183.15, 7.29, 0.000, 0.000, 0.000, 17:46:50.346
131, 29.00, 35.64, -187.19, 12.48, 0.000, 0.000, 0.000, 17:46:50.346
132, 0.98, 52.67, -178.90, 7.78, 0.000, 0.000, 0.000, 17:46:50.347
133, 19.78, 35.57, -175.84, 11.34, 0.000, 0.000, 0.000, 17:46:50.361
134, 12.04, 6.82, -185.55, 10.21, 0.000, 0.000, 0.000, 17:46:50.361
135, 27.85, 48.16, -190.35, 11.34, 0.000, 0.000, 0.000, 17:46:50.376
136, 20.70, 68.92, -179.35, 4.37, 0.000, 0.000, 0.000, 17:46:50.377
137, 27.99, 67.46, -182.11, 12.58, 0.000, 0.000, 0.000, 17:46:50.377
138, 27.59, 60.46, -185.16, 10.49, 0.000, 0.000, 0.000, 17:46:50.377
139, 37.87, 53.91, -189.76, 12.91, 0.000, 0.000, 0.000, 17:46:50.391
140, 36.00, 50.95, -192.64, 11.67, 0.000, 0.000, 0.000, 17:46:50.391
141, 14.13, 51.84, -195.89, 12.80, 0.000, 0.000, 0.000, 17:46:50.406
142, 6.54, 42.29, -206.94, 12.13, 0.000, 0.000, 0.000, 17:46:50.406
143, 41.01, 37.38, -193.50, 9.69, 0.000, 0.000, 0.000, 17:46:50.407
144, 10.32, 35.45, -196.65, 8.90, 0.000, 0.000, 0.000, 17:46:50.407
145, 22.46, 33.58, -188.46, 7.35, 0.000, 0.000, 0.000, 17:46:50.421
146, 53.59, 32.07, -204.72, 9.40, 0.000, 0.000, 0.000, 17:46:50.421
147, 48.79, 40.46, -192.18, 11.19, 0.000, 0.000, 0.000, 17:46:50.436
148, -9.37, 41.21, -180.66, 7.64, 0.000, 0.000, 0.000, 17:46:50.436
149, 30.61, 36.83, -184.21, 8.45, 0.000, 0.000, 0.000, 17:46:50.437
150, 41.86, 32.86, -193.85, 8.34, 0.000, 0.000, 0.000, 17:46:50.437
151, 41.17, 50.51, -186.76, 8.95, 0.000, 0.000, 0.000, 17:46:50.451
152, 50.41, 48.09, -183.22, 8.43, 0.000, 0.000, 0.000, 17:46:50.451
153, 64.02, 37.70, -194.61, 7.11, 0.000, 0.000, 0.000, 17:46:50.466
154, 34.67, 26.61, -198.97, 6.58, 0.000, 0.000, 0.000, 17:46:50.466
155, 27.21, 42.16, -192.74, 8.86, 0.000, 0.000, 0.000, 17:46:50.467
156, 65.13, 62.65, -182.71, 7.71, 0.000, 0.000, 0.000, 17:46:50.467
157, 10.05, 60.98, -187.69, 8.12, 0.000, 0.000, 0.000, 17:46:50.481
158, 21.60, 51.59, -192.62, 8.97, 0.000, 0.000, 0.000, 17:46:50.481
159, 34.55, 31.40, -192.65, 13.19, 0.000, 0.000, 0.000, 17:46:50.495
160, 44.63, 45.76, -176.10, 11.05, 0.000, 0.000, 0.000, 17:46:50.496
161, -39.01, 60.54, -170.00, 10.21, 0.000, 0.000, 0.000, 17:46:50.496
162, -40.30, 66.55, -179.31, 12.64, 0.000, 0.000, 0.000, 17:46:50.496
163, -19.96, 47.31, -183.68, 9.00, 0.000, 0.000, 0.000, 17:46:50.511
164, -52.84, 29.37, -190.82, 9.08, 0.000, 0.000, 0.000, 17:46:50.511
165, -44.14, 36.33, -190.51, 7.86, 0.000, 0.000, 0.000, 17:46:50.526
166, -17.83, 46.54, -179.15, 10.04, 0.000, 0.000, 0.000, 17:46:50.527
167, -43.12, 48.94, -178.74, 12.90, 0.000, 0.000, 0.000, 17:46:50.527
168, -37.70, 61.50, -182.61, 6.57, 0.000, 0.000, 0.000, 17:46:50.527
169, -15.02, 61.88, -176.94, 6.65, 0.000, 0.000, 0.000, 17:46:50.541
170, -32.75, 47.55, -194.15, 6.89, 0.000, 0.000, 0.000, 17:46:50.541
171, -30.21, 19.28, -181.77, 8.15, 0.000, 0.000, 0.000, 17:46:50.556
172, -25.36, 46.53, -190.39, 9.11, 0.000, 0.000, 0.000, 17:46:50.556
173, 8.94, 45.32, -186.82, 9.46, 0.000, 0.000, 0.000, 17:46:50.557
174, 8.66, 56.05, -200.21, 6.23, 0.000, 0.000, 0.000, 17:46:50.557
175, 14.40, 66.36, -172.81, 11.70, 0.000, 0.000, 0.000, 17:46:50.571
176, 2.42, 58.57, -189.32, 9.93, 0.000, 0.000, 0.000, 17:46:50.571
177, -16.09, 53.06, -186.44, 11.42, 0.000, 0.000, 0.000, 17:46:50.586
178, 3.96, 53.38, -178.10, 12.72, 0.000, 0.000, 0.000, 17:46:50.586
179, 20.31, 64.11, -188.30, 11.81, 0.000, 0.000, 0.000, 17:46:50.587
180, 11.00, 27.10, -189.43, 10.81, 0.000, 0.000, 0.000, 17:46:50.587
181, -1.60, 35.58, -188.21, 13.56, 0.000, 0.000, 0.000, 17:46:50.601
182, -6.63, 61.98, -175.19, 8.17, 0.000, 0.000, 0.000, 17:46:50.601
183, 17.89, 48.22, -194.30, 6.02, 0.000, 0.000, 0.000, 17:46:50.616
184, -3.92, 46.53, -191.77, 3.38, 0.000, 0.000, 0.000, 17:46:50.617
185, 34.74, 51.95, -193.19, 6.29, 0.000, 0.000, 0.000, 17:46:50.617
186, 36.43, 49.99, -182.44, 7.47, 0.000, 0.000, 0.000, 17:46:50.617
187, 20.56, 39.10, -193.41, 12.45, 0.000, 0.000, 0.000, 17:46:50.631
188, 19.29, 45.57, -197.61, 7.21, 0.000, 0.000, 0.000, 17:46:50.631
189, 16.19, 46.95, -179.81, 13.26, 0.000, 0.000, 0.000, 17:46:50.646
190, -4.78, 15.73, -186.11, 9.76, 0.000, 0.000, 0.000, 17:46:50.646
191, 6.57, 29.16, -181.06, 11.56, 0.000, 0.000, 0.000, 17:46:50.646
192, 37.06, 50.30, -181.80, 9.07, 0.000, 0.000, 0.000, 17:46:50.646
193, 37.54, 55.27, -183.39, 8.45, 0.000, 0.000, 0.000, 17:46:50.661
194, 10.88, 50.26, -179.37, 9.13, 0.000, 0.000, 0.000, 17:46:50.661
195, -4.77, 39.56, -183.71, 13.16, 0.000, 0.000, 0.000, 17:46:50.676
196, 36.87, 40.12, -182.38, 8.38, 0.000, 0.000, 0.000, 17:46:50.676
197, 33.96, 30.01, -196.32, 10.94, 0.000, 0.000, 0.000, 17:46:50.677
198, -1.91, 26.15, -195.55, 12.83, 0.000, 0.000, 0.000, 17:46:50.677
199, 12.58, 44.77, -173.82, 6.91, 0.000, 0.000, 0.000, 17:46:50.691
200, -1.72, 57.73, -170.78, 8.29, 0.000, 0.000, 0.000, 17:46:50.691
0, 8.42, 56.04, -175.51, 8.47, 0.000, 0.000, 0.000, 17:46:50.691
1, 21.04, 47.19, -177.17, 8.35, 0.000, 0.000, 0.000, 17:46:50.706
2, 38.58, 38.20, -190.31, 7.30, 0.000, 0.000, 0.000, 17:46:50.706
3, 32.82, 45.20, -190.02, 12.80, 0.000, 0.000, 0.000, 17:46:50.721
4, -22.86, 43.36, -182.53, 10.00, 0.000, 0.000, 0.000, 17:46:50.722
5, 10.24, 37.19, -176.14, 6.70, 0.000, 0.000, 0.000, 17:46:50.722
6, 10.15, 36.01, -186.89, 8.86, 0.000, 0.000, 0.000, 17:46:50.722
7, 16.52, 38.72, -182.56, 14.04, 0.000, 0.000, 0.000, 17:46:50.736
8, 9.74, 50.62, -184.24, 9.52, 0.000, 0.000, 0.000, 17:46:50.736
9, 21.53, 30.73, -189.43, 9.13, 0.000, 0.000, 0.000, 17:46:50.751
10, 26.66, 31.53, -185.96, 11.19, 0.000, 0.000, 0.000, 17:46:50.751
11, 34.81, 51.30, -185.07, 7.82, 0.000, 0.000, 0.000, 17:46:50.751
12, 21.99, 42.87, -183.69, 9.64, 0.000, 0.000, 0.000, 17:46:50.751
13, 10.68, 43.11, -181.67, 10.45, 0.000, 0.000, 0.000, 17:46:50.766
14, -2.91, 31.70, -182.42, 4.17, 0.000, 0.000, 0.000, 17:46:50.766
15, 21.14, 49.51, -209.46, 9.35, 0.000, 0.000, 0.000, 17:46:50.781
16, -4.37, 36.12, -168.48, 10.16, 0.000, 0.000, 0.000, 17:46:50.782
17, -4.47, 52.74, -168.31, 7.94, 0.000, 0.000, 0.000, 17:46:50.782
18, 13.92, 50.43, -171.79, 7.78, 0.000, 0.000, 0.000, 17:46:50.782
19, 33.48, 41.64, -170.55, 12.28, 0.000, 0.000, 0.000, 17:46:50.796
20, 8.01, 14.36, -180.05, 9.73, 0.000, 0.000, 0.000, 17:46:50.796
21, -10.08, 52.78, -177.61, 7.05, 0.000, 0.000, 0.000, 17:46:50.811
22, 26.97, 56.17, -184.73, 9.42, 0.000, 0.000, 0.000, 17:46:50.812
23, 17.76, 27.46, -197.24, 12.49, 0.000, 0.000, 0.000, 17:46:50.812
24, -3.61, 41.69, -185.41, 12.74, 0.000, 0.000, 0.000, 17:46:50.812
25, 27.13, 41.21, -190.34, 9.25, 0.000, 0.000, 0.000, 17:46:50.826
26, 18.37, 31.01, -186.83, 6.62, 0.000, 0.000, 0.000, 17:46:50.826
27, -1.93, 64.32, -189.92, 7.76, 0.000, 0.000, 0.000, 17:46:50.841
28, 3.13, 52.97, -173.93, 12.38, 0.000, 0.000, 0.000, 17:46:50.842
29, 7.44, 23.22, -179.74, 9.59, 0.000, 0.000, 0.000, 17:46:50.842
30, -9.36, 49.76, -185.85, 6.97, 0.000, 0.000, 0.000, 17:46:50.842
31, 105.57, 58.39, -184.37, 8.42, 0.000, 0.000, 0.000, 17:46:50.857
32, 178.53, 28.92, -203.86, 9.66, 0.000, 0.000, 0.000, 17:46:50.857
33, 182.61, 7.59, -207.92, 11.09, 0.000, 0.000, 0.000, 17:46:50.886
34, 169.16, 23.69, -189.03, 11.54, 0.000, 0.000, 0.000, 17:46:50.886
35, 76.58, 27.33, -166.19, 9.27, 0.000, 0.000, 0.000, 17:46:50.887
36, -78.78, 29.06, -167.69, 13.04, 0.000, 0.000, 0.000, 17:46:50.887
37, -165.33, 30.78, -165.79, 10.62, 0.000, 0.000, 0.000, 17:46:50.887
38, -85.21, 19.26, -166.59, 9.51, 0.000, 0.000, 0.000, 17:46:50.887
39, -34.16, 43.74, -168.91, 4.57, 0.000, 0.000, 0.000, 17:46:50.901
40, -2.67, 41.31, -177.11, 8.46, 0.000, 0.000, 0.000, 17:46:50.901
41, -4.24, 38.66, -167.34, 9.78, 0.000, 0.000, 0.000, 17:46:50.902
42, -5.99, 15.16, -177.28, 8.47, 0.000, 0.000, 0.000, 17:46:50.902
43, -22.47, 24.41, -176.82, 7.93, 0.000, 0.000, 0.000, 17:46:50.916
44, 3.79, 39.78, -179.80, 10.47, 0.000, 0.000, 0.000, 17:46:50.916
45, 36.86, 23.59, -191.74, 11.86, 0.000, 0.000, 0.000, 17:46:50.931
46, -1.97, 27.90, -192.62, 14.05, 0.000, 0.000, 0.000, 17:46:50.931
47, -37.74, 22.07, -188.01, 9.13, 0.000, 0.000, 0.000, 17:46:50.931
48, 29.13, 26.42, -170.86, 9.17, 0.000, 0.000, 0.000, 17:46:50.932
49, 12.56, 30.15, -194.75, 8.21, 0.000, 0.000, 0.000, 17:46:50.946
50, -27.55, 9.97, -220.24, 8.33, 0.000, 0.000, 0.000, 17:46:50.946
51, 45.22, 67.33, -159.55, 6.93, 0.000, 0.000, 0.000, 17:46:50.962
52, 46.84, 30.36, -161.60, 7.31, 0.000, 0.000, 0.000, 17:46:50.962
53, 2.51, 37.24, -174.34, 11.59, 0.000, 0.000, 0.000, 17:46:50.962
54, 1.81, 51.60, -175.68, 10.57, 0.000, 0.000, 0.000, 17:46:50.963
55, 47.73, 39.81, -181.55, 13.04, 0.000, 0.000, 0.000, 17:46:50.976
56, 24.75, 31.15, -180.63, 6.11, 0.000, 0.000, 0.000, 17:46:50.976
57, 38.33, 32.37, -183.93, 12.52, 0.000, 0.000, 0.000, 17:46:50.991
58, 12.05, 45.09, -185.16, 10.06, 0.000, 0.000, 0.000, 17:46:50.991
59, 30.86, 38.21, -181.48, 9.45, 0.000, 0.000, 0.000, 17:46:50.991
60, 4.68, 44.22, -185.95, 7.48, 0.000, 0.000, 0.000, 17:46:50.991
61, -20.77, 34.47, -178.31, 12.43, 0.000, 0.000, 0.000, 17:46:51.006
62, 43.37, 23.80, -191.76, 9.96, 0.000, 0.000, 0.000, 17:46:51.006
63, 57.61, 25.18, -193.16, 12.38, 0.000, 0.000, 0.000, 17:46:51.021
64, 16.59, 37.93, -209.33, 5.82, 0.000, 0.000, 0.000, 17:46:51.021
65, 30.57, 56.92, -183.67, 12.65, 0.000, 0.000, 0.000, 17:46:51.021
66, 57.72, 40.29, -172.96, 6.36, 0.000, 0.000, 0.000, 17:46:51.022
67, 46.39, 22.21, -176.33, 7.04, 0.000, 0.000, 0.000, 17:46:51.036
68, 36.29, 64.88, -198.35, 9.02, 0.000, 0.000, 0.000, 17:46:51.036
69, 40.13, 61.00, -190.36, 17.73, 0.000, 0.000, 0.000, 17:46:51.051
70, 5.97, 39.24, -170.67, 12.78, 0.000, 0.000, 0.000, 17:46:51.051
71, 52.55, 52.61, -182.07, 11.01, 0.000, 0.000, 0.000, 17:46:51.052
72, 53.36, 55.77, -180.02, 7.51, 0.000, 0.000, 0.000, 17:46:51.052
73, 37.60, 53.77, -197.27, 7.48, 0.000, 0.000, 0.000, 17:46:51.066
74, 16.10, 54.44, -189.22, 9.22, 0.000, 0.000, 0.000, 17:46:51.066
75, 56.75, 39.17, -169.43, 5.59, 0.000, 0.000, 0.000, 17:46:51.096
76, 10.87, 46.25, -163.81, 12.85, 0.000, 0.000, 0.000, 17:46:51.096
77, 25.05, 61.53, -170.37, 13.26, 0.000, 0.000, 0.000, 17:46:51.096
78, 28.10, 60.15, -172.72, 8.89, 0.000, 0.000, 0.000, 17:46:51.097
79, -26.14, 49.36, -171.48, 8.14, 0.000, 0.000, 0.000, 17:46:51.097
80, -56.50, 46.67, -173.01, 9.75, 0.000, 0.000, 0.000, 17:46:51.097
81, -22.80, 44.80, -176.82, 9.72, 0.000, 0.000, 0.000, 17:46:51.111
82, -18.17, 44.55, -174.24, 8.80, 0.000, 0.000, 0.000, 17:46:51.111
83, -45.90, 32.93, -182.88, 9.28, 0.000, 0.000, 0.000, 17:46:51.112
84, -49.97, 22.79, -190.63, 9.76, 0.000, 0.000, 0.000, 17:46:51.112
85, -34.77, 63.25, -175.11, 12.58, 0.000, 0.000, 0.000, 17:46:51.126
86, -9.30, 43.27, -178.66, 6.76, 0.000, 0.000, 0.000, 17:46:51.126
87, -48.29, 50.01, -181.24, 8.75, 0.000, 0.000, 0.000, 17:46:51.141
88, -27.35, 41.98, -185.70, 9.98, 0.000, 0.000, 0.000, 17:46:51.141
89, -13.20, 30.97, -172.38, 10.79, 0.000, 0.000, 0.000, 17:46:51.141
90, 13.71, 50.26, -171.21, 8.28, 0.000, 0.000, 0.000, 17:46:51.142
91, -12.20, 51.18, -170.42, 11.96, 0.000, 0.000, 0.000, 17:46:51.156
92, -0.19, 47.70, -189.09, 9.30, 0.000, 0.000, 0.000, 17:46:51.156
93, 8.43, 31.53, -184.63, 12.09, 0.000, 0.000, 0.000, 17:46:51.171
94, 3.40, 35.18, -199.21, 10.72, 0.000, 0.000, 0.000, 17:46:51.172
95, 11.04, 32.64, -187.65, 12.35, 0.000, 0.000, 0.000, 17:46:51.172
96, -16.02, 31.04, -187.34, 3.52, 0.000, 0.000, 0.000, 17:46:51.172
97, -9.94, 37.96, -191.14, 9.39, 0.000, 0.000, 0.000, 17:46:51.186
98, 28.43, 36.66, -179.44, 10.73, 0.000, 0.000, 0.000, 17:46:51.187
99, 37.51, 11.66, -195.44, 12.22, 0.000, 0.000, 0.000, 17:46:51.201
100, -0.69, 56.10, -177.97, 12.69, 0.000, 0.000, 0.000, 17:46:51.201
101, 29.26, 50.65, -190.25, 7.09, 0.000, 0.000, 0.000, 17:46:51.202
102, 29.47, 24.44, -197.96, 3.61, 0.000, 0.000, 0.000, 17:46:51.202
103, -2.83, 61.09, -195.30, 9.47, 0.000, 0.000, 0.000, 17:46:51.216
104, 18.69, 63.10, -182.36, 5.96, 0.000, 0.000, 0.000, 17:46:51.216
105, 5.08, 58.79, -183.81, 7.92, 0.000, 0.000, 0.000, 17:46:51.231
106, 24.41, 40.85, -186.26, 8.40, 0.000, 0.000, 0.000, 17:46:51.231
107, 2.41, 40.54, -192.33, 10.36, 0.000, 0.000, 0.000, 17:46:51.231
108, 44.18, 65.36, -179.86, 18.46, 0.000, 0.000, 0.000, 17:46:51.232
109, 12.84, 51.81, -196.95, 10.61, 0.000, 0.000, 0.000, 17:46:51.246
110, -6.64, 37.59, -202.65, 7.68, 0.000, 0.000, 0.000, 17:46:51.246
111, -2.27, 41.47, -189.25, 6.99, 0.000, 0.000, 0.000, 17:46:51.261
112, 19.93, 34.66, -188.89, 11.39, 0.000, 0.000, 0.000, 17:46:51.261
113, 20.51, 15.11, -186.50, 8.69, 0.000, 0.000, 0.000, 17:46:51.262
114, 17.22, 40.49, -185.59, 9.00, 0.000, 0.000, 0.000, 17:46:51.262
115, 24.29, 27.62, -193.08, 9.13, 0.000, 0.000, 0.000, 17:46:51.276
116, 8.10, 52.06, -189.63, 10.51, 0.000, 0.000, 0.000, 17:46:51.276
117, 12.01, 47.03, -189.47, 12.64, 0.000, 0.000, 0.000, 17:46:51.291
118, 32.03, 43.44, -180.71, 6.43, 0.000, 0.000, 0.000, 17:46:51.291
119, 11.94, 32.96, -197.18, 7.72, 0.000, 0.000, 0.000, 17:46:51.292
120, -18.21, 30.74, -202.75, 9.69, 0.000, 0.000, 0.000, 17:46:51.292
121, 45.27, 45.10, -185.44, 13.40, 0.000, 0.000, 0.000, 17:46:51.306
122, 23.05, 29.61, -186.10, 8.20, 0.000, 0.000, 0.000, 17:46:51.306
123, -23.22, 38.71, -188.68, 12.63, 0.000, 0.000, 0.000, 17:46:51.321
124, 18.22, 51.05, -194.43, 9.58, 0.000, 0.000, 0.000, 17:46:51.322
125, 41.41, 44.99, -192.91, 11.10, 0.000, 0.000, 0.000, 17:46:51.322
126, 1.30, 35.63, -186.15, 8.84, 0.000, 0.000, 0.000, 17:46:51.322
127, -7.15, 38.75, -181.07, 12.10, 0.000, 0.000, 0.000, 17:46:51.336
128, 21.58, 43.81, -186.60, 7.96, 0.000, 0.000, 0.000, 17:46:51.336
129, 25.10, 27.27, -191.07, 13.93, 0.000, 0.000, 0.000, 17:46:51.351
130, 22.35, 42.81, -177.01, 9.85, 0.000, 0.000, 0.000, 17:46:51.352
131, -3.11, 48.90, -181.13, 8.98, 0.000, 0.000, 0.000, 17:46:51.352
132, 13.84, 33.35, -181.63, 6.00, 0.000, 0.000, 0.000, 17:46:51.352
133, 5.80, 30.99, -194.33, 8.26, 0.000, 0.000, 0.000, 17:46:51.366
134, 29.28, 44.21, -182.50, 9.33, 0.000, 0.000, 0.000, 17:46:51.366
135, 43.14, 22.11, -180.17, 15.21, 0.000, 0.000, 0.000, 17:46:51.381
136, 4.37, 28.27, -184.69, 10.97, 0.000, 0.000, 0.000, 17:46:51.381
137, 10.86, 40.95, -185.59, 12.70, 0.000, 0.000, 0.000, 17:46:51.381
138, 35.77, 48.95, -183.08, 10.70, 0.000, 0.000, 0.000, 17:46:51.381
139, 25.23, 34.37, -184.40, 7.18, 0.000, 0.000, 0.000, 17:46:51.396
140, -19.07, 41.61, -184.17, 6.99, 0.000, 0.000, 0.000, 17:46:51.396
141, -13.63, 47.61, -177.71, 8.75, 0.000, 0.000, 0.000, 17:46:51.411
142, 21.13, 27.44, -188.87, 10.09, 0.000, 0.000, 0.000, 17:46:51.411
143, 25.43, 23.91, -190.40, 12.69, 0.000, 0.000, 0.000, 17:46:51.411
144, 8.91, 28.28, -186.66, 10.10, 0.000, 0.000, 0.000, 17:46:51.412
145, 4.52, 36.45, -180.40, 6.22, 0.000, 0.000, 0.000, 17:46:51.426
146, 20.96, 37.07, -185.52, 7.90, 0.000, 0.000, 0.000, 17:46:51.426
147, -10.72, 46.34, -188.69, 11.75, 0.000, 0.000, 0.000, 17:46:51.441
148, 6.10, 34.29, -193.29, 10.43, 0.000, 0.000, 0.000, 17:46:51.441
149, 25.23, 38.93, -189.17, 8.69, 0.000, 0.000, 0.000, 17:46:51.441
150, 5.08, 47.33, -177.35, 7.92, 0.000, 0.000, 0.000, 17:46:51.442
151, 9.64, 48.83, -173.83, 11.89, 0.000, 0.000, 0.000, 17:46:51.456
152, 19.62, 28.22, -188.94, 10.73, 0.000, 0.000, 0.000, 17:46:51.457
153, 8.51, 35.23, -182.46, 14.32, 0.000, 0.000, 0.000, 17:46:51.471
154, 11.94, 45.93, -180.15, 15.06, 0.000, 0.000, 0.000, 17:46:51.471
155, 66.36, 31.40, -197.69, 13.70, 0.000, 0.000, 0.000, 17:46:51.471
156, 144.70, 28.77, -188.12, 10.31, 0.000, 0.000, 0.000, 17:46:51.472
157, 172.14, 16.78, -187.41, 9.70, 0.000, 0.000, 0.000, 17:46:51.486
158, 215.41, 44.98, -190.21, 4.74, 0.000, 0.000, 0.000, 17:46:51.486
159, 136.49, 28.32, -198.69, 10.93, 0.000, 0.000, 0.000, 17:46:51.501
160, -40.17, 37.49, -196.40, 10.84, 0.000, 0.000, 0.000, 17:46:51.501
161, -145.90, 32.95, -184.84, 4.80, 0.000, 0.000, 0.000, 17:46:51.502
162, -140.63, 52.73, -179.67, 8.90, 0.000, 0.000, 0.000, 17:46:51.502
163, -50.23, 33.11, -182.42, 6.53, 0.000, 0.000, 0.000, 17:46:51.516
164, -4.25, 28.76, -186.39, 8.36, 0.000, 0.000, 0.000, 17:46:51.516
165, 4.88, 50.75, -188.12, 10.58, 0.000, 0.000, 0.000, 17:46:51.531
166, -29.03, 66.45, -179.96, 9.03, 0.000, 0.000, 0.000, 17:46:51.531
167, -34.92, 55.40, -181.81, 11.33, 0.000, 0.000, 0.000, 17:46:51.531
168, 2.00, 43.00, -178.91, 8.17, 0.000, 0.000, 0.000, 17:46:51.532
169, 4.42, 45.28, -191.52, 13.88, 0.000, 0.000, 0.000, 17:46:51.546
170, -8.43, 47.48, -192.51, 11.35, 0.000, 0.000, 0.000, 17:46:51.546
171, 25.03, 54.53, -189.57, 10.23, 0.000, 0.000, 0.000, 17:46:51.561
172, 17.31, 25.62, -198.80, 11.18, 0.000, 0.000, 0.000, 17:46:51.561
173, -5.03, 39.24, -211.24, 13.86, 0.000, 0.000, 0.000, 17:46:51.561
174, -1.68, 40.39, -196.87, 7.99, 0.000, 0.000, 0.000, 17:46:51.561
175, 4.71, 15.32, -184.92, 10.76, 0.000, 0.000, 0.000, 17:46:51.576
176, 19.34, 22.28, -203.05, 12.17, 0.000, 0.000, 0.000, 17:46:51.576
177, 6.73, 74.78, -178.35, 7.02, 0.000, 0.000, 0.000, 17:46:51.591
178, 15.00, 59.44, -190.12, 9.89, 0.000, 0.000, 0.000, 17:46:51.591
179, 40.82, 49.69, -188.40, 8.18, 0.000, 0.000, 0.000, 17:46:51.592
180, 31.02, 29.84, -193.27, 11.42, 0.000, 0.000, 0.000, 17:46:51.592
181, 7.78, 45.97, -193.01, 11.15, 0.000, 0.000, 0.000, 17:46:51.606
182, 52.12, 46.93, -182.61, 9.00, 0.000, 0.000, 0.000, 17:46:51.606
183, 4.21, 35.55, -168.56, 13.66, 0.000, 0.000, 0.000, 17:46:51.621
184, 46.89, 22.16, -167.35, 6.04, 0.000, 0.000, 0.000, 17:46:51.621
185, 20.56, 43.04, -178.57, 8.04, 0.000, 0.000, 0.000, 17:46:51.621
186, 7.95, 58.08, -185.96, 14.92, 0.000, 0.000, 0.000, 17:46:51.621
187, 12.00, 49.84, -186.88, 7.18, 0.000, 0.000, 0.000, 17:46:51.635
188, 74.66, 53.33, -186.08, 11.63, 0.000, 0.000, 0.000, 17:46:51.636
189, 23.55, 44.15, -180.61, 8.35, 0.000, 0.000, 0.000, 17:46:51.651
190, 25.46, 41.07, -185.57, 7.46, 0.000, 0.000, 0.000, 17:46:51.651
191, 41.26, 36.67, -179.67, 10.44, 0.000, 0.000, 0.000, 17:46:51.651
192, 35.99, 46.86, -197.00, 8.16, 0.000, 0.000, 0.000, 17:46:51.652
193, 34.59, 40.93, -201.90, 7.80, 0.000, 0.000, 0.000, 17:46:51.666
194, 62.09, 44.13, -190.87, 8.82, 0.000, 0.000, 0.000, 17:46:51.666
195, 56.45, 29.59, -186.17, 9.94, 0.000, 0.000, 0.000, 17:46:51.681
196, 46.07, 14.86, -187.21, 10.13, 0.000, 0.000, 0.000, 17:46:51.681
197, 20.02, 49.71, -194.78, 12.25, 0.000, 0.000, 0.000, 17:46:51.681
198, 21.04, 78.26, -197.23, 7.16, 0.000, 0.000, 0.000, 17:46:51.682
199, 44.13, 58.93, -183.57, 5.95, 0.000, 0.000, 0.000, 17:46:51.696
200, 30.21, 58.20, -183.42, 7.32, 0.000, 0.000, 0.000, 17:46:51.697
0, 33.04, 58.36, -169.66, 9.23, 0.000, 0.000, 0.000, 17:46:51.697
1, 21.35, 51.03, -176.78, 7.25, 0.000, 0.000, 0.000, 17:46:51.711
2, -10.10, 35.17, -183.34, 9.34, 0.000, 0.000, 0.000, 17:46:51.711
3, -41.78, 41.52, -184.11, 13.67, 0.000, 0.000, 0.000, 17:46:51.726
4, -6.36, 48.33, -185.93, 14.55, 0.000, 0.000, 0.000, 17:46:51.726
5, -6.86, 48.62, -180.68, 11.30, 0.000, 0.000, 0.000, 17:46:51.727
6, -48.21, 30.58, -185.23, 7.74, 0.000, 0.000, 0.000, 17:46:51.727
7, -28.04, 53.14, -185.29, 13.49, 0.000, 0.000, 0.000, 17:46:51.742
8, -52.32, 54.33, -169.62, 9.43, 0.000, 0.000, 0.000, 17:46:51.742
9, -55.35, 35.82, -182.37, 11.88, 0.000, 0.000, 0.000, 17:46:51.756
10, -33.98, 52.28, -178.07, 10.67, 0.000, 0.000, 0.000, 17:46:51.756
11, -15.99, 55.03, -188.11, 13.01, 0.000, 0.000, 0.000, 17:46:51.757
12, -20.81, 44.72, -187.86, 8.23, 0.000, 0.000, 0.000, 17:46:51.757
13, -14.15, 49.27, -190.22, 12.55, 0.000, 0.000, 0.000, 17:46:51.770
14, 4.64, 36.71, -178.65, 8.31, 0.000, 0.000, 0.000, 17:46:51.771
15, 5.12, 58.88, -176.87, 7.23, 0.000, 0.000, 0.000, 17:46:51.786
16, -22.27, 53.31, -182.67, 11.41, 0.000, 0.000, 0.000, 17:46:51.786
17, 5.67, 51.78, -178.99, 8.01, 0.000, 0.000, 0.000, 17:46:51.786
18, 6.15, 41.67, -192.86, 12.76, 0.000, 0.000, 0.000, 17:46:51.786
19, 20.93, 46.04, -179.71, 6.67, 0.000, 0.000, 0.000, 17:46:51.801
20, 16.92, 16.52, -176.30, 3.00, 0.000, 0.000, 0.000, 17:46:51.802
21, 23.50, 36.90, -181.01, 12.68, 0.000, 0.000, 0.000, 17:46:51.816
22, 2.34, 46.29, -180.02, 13.05, 0.000, 0.000, 0.000, 17:46:51.817
23, 27.59, 48.99, -180.79, 10.90, 0.000, 0.000, 0.000, 17:46:51.817
24, 5.09, 50.73, -197.97, 11.43, 0.000, 0.000, 0.000, 17:46:51.817
25, -17.11, 36.81, -183.44, 14.00, 0.000, 0.000, 0.000, 17:46:51.831
26, 7.38, 37.73, -173.27, 10.10, 0.000, 0.000, 0.000, 17:46:51.831
27, 15.72, 38.49, -173.89, 11.00, 0.000, 0.000, 0.000, 17:46:51.846
28, -6.31, 35.48, -191.19, 7.94, 0.000, 0.000, 0.000, 17:46:51.846
29, 26.88, 45.51, -183.35, 8.42, 0.000, 0.000, 0.000, 17:46:51.847
30, 17.01, 29.54, -186.21, 12.41, 0.000, 0.000, 0.000, 17:46:51.847
31, 50.24, 41.70, -177.11, 9.60, 0.000, 0.000, 0.000, 17:46:51.861
32, 17.88, 41.36, -178.06, 8.71, 0.000, 0.000, 0.000, 17:46:51.861
33, 4.00, 62.51, -177.39, 12.47, 0.000, 0.000, 0.000, 17:46:51.875
34, 6.86, 46.18, -179.98, 8.45, 0.000, 0.000, 0.000, 17:46:51.875
35, 7.35, 35.95, -182.05, 10.76, 0.000, 0.000, 0.000, 17:46:51.891
36, 31.84, 40.84, -184.00, 8.43, 0.000, 0.000, 0.000, 17:46:51.891
37, 48.12, 28.85, -206.98, 10.94, 0.000, 0.000, 0.000, 17:46:51.891
38, 24.21, 22.50, -172.69, 5.70, 0.000, 0.000, 0.000, 17:46:51.892
39, -10.03, 33.35, -170.83, 8.33, 0.000, 0.000, 0.000, 17:46:51.906
40, -0.18, 30.40, -166.70, 10.54, 0.000, 0.000, 0.000, 17:46:51.906
41, 0.09, 12.56, -174.77, 4.74, 0.000, 0.000, 0.000, 17:46:51.906
42, -11.14, 26.13, -182.78, 13.21, 0.000, 0.000, 0.000, 17:46:51.907
43, 47.06, 42.78, -174.05, 11.46, 0.000, 0.000, 0.000, 17:46:51.921
44, 54.00, 40.25, -171.09, 9.89, 0.000, 0.000, 0.000, 17:46:51.921
45, -4.93, 18.30, -180.62, 12.00, 0.000, 0.000, 0.000, 17:46:51.936
46, -25.26, 33.70, -182.22, 11.90, 0.000, 0.000, 0.000, 17:46:51.936
47, 22.16, 26.95, -185.32, 7.90, 0.000, 0.000, 0.000, 17:46:51.936
48, -2.92, 10.54, -196.34, 10.14, 0.000, 0.000, 0.000, 17:46:51.937
49, 2.41, 5.56, -191.26, 13.44, 0.000, 0.000, 0.000, 17:46:51.950
50, 18.89, 35.16, -182.09, 7.56, 0.000, 0.000, 0.000, 17:46:51.951
51, 15.83, 46.44, -179.62, 11.01, 0.000, 0.000, 0.000, 17:46:51.966
52, 9.38, 37.87, -189.03, 14.29, 0.000, 0.000, 0.000, 17:46:51.966
53, -9.90, 37.45, -176.45, 10.77, 0.000, 0.000, 0.000, 17:46:51.967
54, 14.04, 35.30, -182.94, 11.53, 0.000, 0.000, 0.000, 17:46:51.967
55, 21.15, 26.09, -193.13, 9.39, 0.000, 0.000, 0.000, 17:46:51.981
56, 7.49, 22.74, -188.39, 10.08, 0.000, 0.000, 0.000, 17:46:51.981
57, 43.43, 7.00, -186.68, 9.81, 0.000, 0.000, 0.000, 17:46:51.996
58, 4.71, 51.02, -182.78, 12.78, 0.000, 0.000, 0.000, 17:46:51.996
59, 10.91, 43.51, -188.55, 10.45, 0.000, 0.000, 0.000, 17:46:51.996
60, 5.33, 51.23, -193.42, 8.87, 0.000, 0.000, 0.000, 17:46:51.996
61, 39.87, 50.14, -194.78, 9.74, 0.000, 0.000, 0.000, 17:46:52.011
62, 18.79, 34.37, -189.36, 12.30, 0.000, 0.000, 0.000, 17:46:52.011
63, 2.87, 38.23, -178.70, 12.21, 0.000, 0.000, 0.000, 17:46:52.026
64, -17.77, 32.61, -186.14, 8.73, 0.000, 0.000, 0.000, 17:46:52.026
65, 26.47, 39.25, -184.15, 10.73, 0.000, 0.000, 0.000, 17:46:52.027
66, 13.74, 17.36, -183.65, 8.15, 0.000, 0.000, 0.000, 17:46:52.027
67, 18.29, 36.43, -177.42, 10.61, 0.000, 0.000, 0.000, 17:46:52.041
68, 15.84, 40.36, -185.25, 8.47, 0.000, 0.000, 0.000, 17:46:52.041
69, 2.25, 47.45, -186.77, 6.03, 0.000, 0.000, 0.000, 17:46:52.057
70, 18.40, 45.25, -189.66, 7.08, 0.000, 0.000, 0.000, 17:46:52.057
71, 47.48, 37.50, -184.07, 6.74, 0.000, 0.000, 0.000, 17:46:52.071
72, 2.72, 24.42, -184.56, 7.83, 0.000, 0.000, 0.000, 17:46:52.071
73, -14.77, 43.21, -180.29, 11.70, 0.000, 0.000, 0.000, 17:46:52.072
74, 14.04, 38.90, -178.29, 10.59, 0.000, 0.000, 0.000, 17:46:52.072
75, 17.62, 46.78, -186.55, 11.56, 0.000, 0.000, 0.000, 17:46:52.085
76, -2.29, 36.82, -179.02, 9.43, 0.000, 0.000, 0.000, 17:46:52.086
77, 7.23, 40.22, -178.73, 6.94, 0.000, 0.000, 0.000, 17:46:52.086
78, 28.20, 38.32, -188.04, 10.20, 0.000, 0.000, 0.000, 17:46:52.086
79, -10.94, 47.16, -187.32, 13.79, 0.000, 0.000, 0.000, 17:46:52.101
80, 32.54, 31.56, -191.33, 4.56, 0.000, 0.000, 0.000, 17:46:52.101
81, 24.14, 42.82, -172.94, 10.96, 0.000, 0.000, 0.000, 17:46:52.115
82, 3.78, 47.35, -188.01, 11.09, 0.000, 0.000, 0.000, 17:46:52.116
83, -6.71, 40.07, -184.76, 13.33, 0.000, 0.000, 0.000, 17:46:52.116
84, 0.79, 21.37, -186.08, 10.11, 0.000, 0.000, 0.000, 17:46:52.116
85, 58.50, 24.51, -184.39, 7.83, 0.000, 0.000, 0.000, 17:46:52.131
86, 132.17, 48.30, -190.99, 5.79, 0.000, 0.000, 0.000, 17:46:52.131
87, 200.79, 39.37, -191.61, 10.98, 0.000, 0.000, 0.000, 17:46:52.146
88, 231.49, 19.91, -202.02, 11.91, 0.000, 0.000, 0.000, 17:46:52.146
89, 144.01, 24.69, -199.97, 7.25, 0.000, 0.000, 0.000, 17:46:52.146
90, -25.89, 55.87, -185.48, 7.96, 0.000, 0.000, 0.000, 17:46:52.146
91, -131.52, 24.79, -195.52, 7.71, 0.000, 0.000, 0.000, 17:46:52.161
92, -153.00, 40.60, -166.20, 5.91, 0.000, 0.000, 0.000, 17:46:52.162
93, -65.90, 74.10, -166.64, 9.30, 0.000, 0.000, 0.000, 17:46:52.176
94, 5.79, 64.40, -166.00, 10.02, 0.000, 0.000, 0.000, 17:46:52.176
95, -17.70, 49.85, -180.17, 10.23, 0.000, 0.000, 0.000, 17:46:52.176
96, -25.56, 44.90, -183.87, 9.96, 0.000, 0.000, 0.000, 17:46:52.177
97, -22.57, 18.40, -192.64, 12.12, 0.000, 0.000, 0.000, 17:46:52.191
98, -14.61, 45.19, -169.13, 6.43, 0.000, 0.000, 0.000, 17:46:52.191
99, -18.97, 84.03, -144.59, 10.45, 0.000, 0.000, 0.000, 17:46:52.206
100, 7.68, 70.84, -141.13, 11.09, 0.000, 0.000, 0.000, 17:46:52.207
101, 20.13, 80.27, -134.12, 10.53, 0.000, 0.000, 0.000, 17:46:52.207
102, 22.08, 92.15, -135.45, 7.53, 0.000, 0.000, 0.000, 17:46:52.207
103, 13.38, 101.20, -116.68, 12.61, 0.000, 0.000, 0.000, 17:46:52.221
104, -4.84, 81.30, -100.23, 12.31, 0.000, 0.000, 0.000, 17:46:52.221
105, 18.25, 75.12, -116.68, 10.57, 0.000, 0.000, 0.000, 17:46:52.236
106, 14.94, 95.85, -132.05, 8.01, 0.000, 0.000, 0.000, 17:46:52.237
107, 30.94, 77.97, -137.33, 10.37, 0.000, 0.000, 0.000, 17:46:52.237
108, 17.60, 75.16, -155.81, 7.35, 0.000, 0.000, 0.000, 17:46:52.237
109, 7.78, 65.17, -146.46, 10.47, 0.000, 0.000, 0.000, 17:46:52.251
110, 8.61, 44.14, -156.27, 10.65, 0.000, 0.000, 0.000, 17:46:52.251
111, 44.76, 42.55, -171.58, 9.14, 0.000, 0.000, 0.000, 17:46:52.267
112, 6.43, 46.75, -183.84, 10.41, 0.000, 0.000, 0.000, 17:46:52.267
113, 27.58, 46.95, -198.66, 13.34, 0.000, 0.000, 0.000, 17:46:52.267
114, 24.98, 36.35, -199.91, 11.87, 0.000, 0.000, 0.000, 17:46:52.267
115, 35.07, 24.99, -185.17, 10.07, 0.000, 0.000, 0.000, 17:46:52.281
116, 17.41, 22.23, -185.55, 10.22, 0.000, 0.000, 0.000, 17:46:52.281
117, 32.30, 26.10, -192.78, 7.76, 0.000, 0.000, 0.000, 17:46:52.296
118, 49.45, 20.41, -189.33, 9.76, 0.000, 0.000, 0.000, 17:46:52.296
119, 11.53, 41.35, -199.27, 11.60, 0.000, 0.000, 0.000, 17:46:52.297
120, 32.31, 40.96, -197.26, 6.54, 0.000, 0.000, 0.000, 17:46:52.297
121, 31.17, 32.51, -194.76, 9.11, 0.000, 0.000, 0.000, 17:46:52.311
122, 27.25, 36.04, -190.42, 7.05, 0.000, 0.000, 0.000, 17:46:52.311
123, 65.17, 36.57, -190.59, 12.64, 0.000, 0.000, 0.000, 17:46:52.326
124, 63.41, 36.69, -194.66, 8.40, 0.000, 0.000, 0.000, 17:46:52.326
125, 9.45, 17.91, -195.13, 8.83, 0.000, 0.000, 0.000, 17:46:52.326
126, 13.20, 37.92, -199.81, 9.65, 0.000, 0.000, 0.000, 17:46:52.327
127, 56.73, 27.73, -194.04, 7.59, 0.000, 0.000, 0.000, 17:46:52.341
128, 36.76, 42.44, -195.53, 9.65, 0.000, 0.000, 0.000, 17:46:52.341
129, 23.41, 51.38, -192.92, 15.53, 0.000, 0.000, 0.000, 17:46:52.356
130, 46.75, 52.22, -192.53, 9.13, 0.000, 0.000, 0.000, 17:46:52.357
131, 46.79, 47.77, -209.60, 4.89, 0.000, 0.000, 0.000, 17:46:52.357
132, 7.51, 42.62, -181.82, 11.57, 0.000, 0.000, 0.000, 17:46:52.357
133, -12.84, 48.67, -170.62, 12.61, 0.000, 0.000, 0.000, 17:46:52.371
134, -7.63, 32.86, -180.55, 11.68, 0.000, 0.000, 0.000, 17:46:52.371
135, -18.10, 7.74, -187.22, 12.99, 0.000, 0.000, 0.000, 17:46:52.386
136, -41.05, 41.31, -185.84, 4.29, 0.000, 0.000, 0.000, 17:46:52.386
137, -32.59, 42.60, -183.05, 9.71, 0.000, 0.000, 0.000, 17:46:52.387
138, -34.07, 43.86, -199.25, 8.23, 0.000, 0.000, 0.000, 17:46:52.387
139, -37.28, 56.97, -193.11, 9.81, 0.000, 0.000, 0.000, 17:46:52.401
140, -46.47, 61.87, -168.48, 7.98, 0.000, 0.000, 0.000, 17:46:52.401
141, -8.79, 48.15, -178.88, 10.94, 0.000, 0.000, 0.000, 17:46:52.416
142, -32.44, 44.36, -197.81, 4.14, 0.000, 0.000, 0.000, 17:46:52.416
143, -25.98, 38.23, -180.37, 9.36, 0.000, 0.000, 0.000, 17:46:52.416
144, -20.59, 33.31, -174.89, 10.04, 0.000, 0.000, 0.000, 17:46:52.417
145, -15.18, 51.26, -188.81, 14.29, 0.000, 0.000, 0.000, 17:46:52.431
146, 0.36, 55.99, -194.80, 13.82, 0.000, 0.000, 0.000, 17:46:52.431
147, -4.92, 47.93, -176.94, 12.76, 0.000, 0.000, 0.000, 17:46:52.446
148, 8.39, 29.45, -174.78, 14.38, 0.000, 0.000, 0.000, 17:46:52.446
149, 23.44, 37.11, -184.44, 13.44, 0.000, 0.000, 0.000, 17:46:52.446
150, 24.77, 47.91, -202.70, 9.16, 0.000, 0.000, 0.000, 17:46:52.446
151, -9.28, 42.13, -204.04, 12.99, 0.000, 0.000, 0.000, 17:46:52.461
152, -3.56, 33.64, -188.02, 11.78, 0.000, 0.000, 0.000, 17:46:52.461
153, -0.10, 53.15, -161.66, 11.68, 0.000, 0.000, 0.000, 17:46:52.477
154, 48.57, 43.45, -168.88, 6.57, 0.000, 0.000, 0.000, 17:46:52.477
155, -17.03, 38.64, -179.43, 11.31, 0.000, 0.000, 0.000, 17:46:52.477
156, 1.87, 40.36, -176.86, 12.82, 0.000, 0.000, 0.000, 17:46:52.478
157, 47.06, 40.83, -175.81, 8.86, 0.000, 0.000, 0.000, 17:46:52.491
158, 40.26, 30.37, -190.76, 16.41, 0.000, 0.000, 0.000, 17:46:52.491
159, -22.24, 13.85, -203.67, 12.16, 0.000, 0.000, 0.000, 17:46:52.505
160, 2.83, 33.23, -179.02, 9.51, 0.000, 0.000, 0.000, 17:46:52.506
161, 5.33, 34.82, -183.49, 11.99, 0.000, 0.000, 0.000, 17:46:52.506
162, 23.69, 34.90, -193.10, 9.08, 0.000, 0.000, 0.000, 17:46:52.506
163, 23.52, 23.19, -171.70, 7.18, 0.000, 0.000, 0.000, 17:46:52.521
164, 45.04, 36.17, -171.98, 12.44, 0.000, 0.000, 0.000, 17:46:52.521
165, -10.32, 20.24, -191.80, 6.96, 0.000, 0.000, 0.000, 17:46:52.536
166, -15.03, 30.85, -181.84, 5.53, 0.000, 0.000, 0.000, 17:46:52.536
167, 13.06, 30.04, -181.10, 11.56, 0.000, 0.000, 0.000, 17:46:52.537
168, 22.04, 19.50, -193.04, 8.08, 0.000, 0.000, 0.000, 17:46:52.537
169, 24.08, 28.22, -193.71, 8.96, 0.000, 0.000, 0.000, 17:46:52.551
170, 11.19, 32.37, -184.39, 9.16, 0.000, 0.000, 0.000, 17:46:52.551
171, 12.49, 41.37, -180.15, 11.67, 0.000, 0.000, 0.000, 17:46:52.566
172, -1.61, 31.24, -181.04, 9.72, 0.000, 0.000, 0.000, 17:46:52.566
173, 22.81, 52.59, -190.56, 12.15, 0.000, 0.000, 0.000, 17:46:52.567
174, 40.04, 37.81, -177.19, 13.63, 0.000, 0.000, 0.000, 17:46:52.567
175, 23.39, 44.11, -189.58, 6.84, 0.000, 0.000, 0.000, 17:46:52.580
176, 9.56, 31.66, -183.13, 5.71, 0.000, 0.000, 0.000, 17:46:52.581
177, -26.31, 45.45, -186.73, 13.10, 0.000, 0.000, 0.000, 17:46:52.596
178, 17.95, 50.26, -216.81, 9.17, 0.000, 0.000, 0.000, 17:46:52.596
179, -2.76, 35.40, -174.77, 7.12, 0.000, 0.000, 0.000, 17:46:52.597
180, 22.72, 44.12, -171.73, 5.03, 0.000, 0.000, 0.000, 17:46:52.597
181, 35.65, 31.24, -178.37, 9.16, 0.000, 0.000, 0.000, 17:46:52.611
182, 20.20, 29.20, -179.66, 10.07, 0.000, 0.000, 0.000, 17:46:52.611
183, 5.24, 43.84, -208.05, 11.29, 0.000, 0.000, 0.000, 17:46:52.626
184, 2.85, 50.84, -186.17, 9.30, 0.000, 0.000, 0.000, 17:46:52.626
185, 12.13, 41.62, -165.70, 8.42, 0.000, 0.000, 0.000, 17:46:52.626
186, 1.77, 35.17, -180.46, 9.35, 0.000, 0.000, 0.000, 17:46:52.627
187, 15.74, 36.63, -176.10, 13.28, 0.000, 0.000, 0.000, 17:46:52.641
188, 21.38, 39.97, -172.03, 12.41, 0.000, 0.000, 0.000, 17:46:52.641
189, 6.79, 31.28, -176.38, 8.56, 0.000, 0.000, 0.000, 17:46:52.656
190, 37.27, 42.35, -176.68, 12.28, 0.000, 0.000, 0.000, 17:46:52.656
191, 22.43, 39.66, -186.34, 10.71, 0.000, 0.000, 0.000, 17:46:52.656
192, 16.54, 36.43, -183.69, 9.81, 0.000, 0.000, 0.000, 17:46:52.656
193, -19.08, 38.43, -180.47, 9.90, 0.000, 0.000, 0.000, 17:46:52.671
194, 22.49, 36.17, -173.26, 9.64, 0.000, 0.000, 0.000, 17:46:52.671
195, 12.01, 31.91, -184.91, 11.18, 0.000, 0.000, 0.000, 17:46:52.687
196, 26.48, 30.45, -185.11, 13.00, 0.000, 0.000, 0.000, 17:46:52.687
197, 18.69, 43.77, -183.12, 6.37, 0.000, 0.000, 0.000, 17:46:52.688
198, 3.96, 39.92, -186.30, 10.33, 0.000, 0.000, 0.000, 17:46:52.688
199, 5.50, 42.66, -187.01, 12.78, 0.000, 0.000, 0.000, 17:46:52.701
200, 10.99, 34.32, -179.69, 10.74, 0.000, 0.000, 0.000, 17:46:52.701
0, 41.46, 25.61, -171.96, 9.90, 0.000, 0.000, 0.000, 17:46:52.702
1, -17.81, 44.58, -179.55, 11.09, 0.000, 0.000, 0.000, 17:46:52.716
2, 2.03, 55.52, -186.52, 9.78, 0.000, 0.000, 0.000, 17:46:52.716
3, 25.20, 38.52, -178.10, 12.31, 0.000, 0.000, 0.000, 17:46:52.731
4, 6.61, 21.48, -191.83, 6.26, 0.000, 0.000, 0.000, 17:46:52.731
5, 1.29, 27.01, -187.41, 9.87, 0.000, 0.000, 0.000, 17:46:52.731
6, 53.22, 22.69, -189.29, 9.65, 0.000, 0.000, 0.000, 17:46:52.732
7, 12.30, 39.85, -172.93, 7.99, 0.000, 0.000, 0.000, 17:46:52.746
8, -28.88, 36.82, -182.32, 9.71, 0.000, 0.000, 0.000, 17:46:52.746
9, 29.48, 51.06, -187.48, 12.31, 0.000, 0.000, 0.000, 17:46:52.761
10, 25.00, 40.39, -163.84, 7.64, 0.000, 0.000, 0.000, 17:46:52.761
11, -1.28, 36.54, -173.47, 10.05, 0.000, 0.000, 0.000, 17:46:52.761
12, -12.73, 38.40, -207.98, 10.88, 0.000, 0.000, 0.000, 17:46:52.762
13, 29.37, 57.24, -182.51, 9.22, 0.000, 0.000, 0.000, 17:46:52.775
14, 33.47, 46.96, -173.18, 11.64, 0.000, 0.000, 0.000, 17:46:52.776
15, -1.21, 54.31, -177.91, 9.96, 0.000, 0.000, 0.000, 17:46:52.791
16, 20.44, 55.13, -180.60, 14.18, 0.000, 0.000, 0.000, 17:46:52.791
17, 35.58, 67.92, -199.89, 10.04, 0.000, 0.000, 0.000, 17:46:52.791
18, 2.76, 43.67, -191.37, 7.27, 0.000, 0.000, 0.000, 17:46:52.791
19, 29.68, 49.52, -184.30, 6.12, 0.000, 0.000, 0.000, 17:46:52.805
20, 36.97, 42.34, -194.24, 8.09, 0.000, 0.000, 0.000, 17:46:52.806
21, -15.35, 36.54, -197.44, 10.10, 0.000, 0.000, 0.000, 17:46:52.821
22, -5.20, 39.20, -194.36, 6.96, 0.000, 0.000, 0.000, 17:46:52.821
23, 26.49, 39.10, -195.56, 8.24, 0.000, 0.000, 0.000, 17:46:52.821
24, 3.94, 38.81, -187.97, 9.41, 0.000, 0.000, 0.000, 17:46:52.822
25, -4.30, 38.78, -190.64, 8.65, 0.000, 0.000, 0.000, 17:46:52.836
26, 16.83, 52.89, -184.64, 9.75, 0.000, 0.000, 0.000, 17:46:52.836
27, 9.33, 33.65, -181.86, 12.98, 0.000, 0.000, 0.000, 17:46:52.851
28, -0.19, 30.32, -188.67, 10.39, 0.000, 0.000, 0.000, 17:46:52.851
29, 4.95, 40.89, -185.26, 13.37, 0.000, 0.000, 0.000, 17:46:52.852
30, 29.54, 42.62, -182.77, 8.55, 0.000, 0.000, 0.000, 17:46:52.852
31, 10.91, 34.25, -183.55, 7.02, 0.000, 0.000, 0.000, 17:46:52.866
32, -18.68, 35.90, -189.29, 6.81, 0.000, 0.000, 0.000, 17:46:52.866
33, 15.21, 43.77, -188.18, 11.68, 0.000, 0.000, 0.000, 17:46:52.896
34, 34.97, 29.59, -193.97, 5.74, 0.000, 0.000, 0.000, 17:46:52.897
35, 28.76, 45.42, -187.70, 6.75, 0.000, 0.000, 0.000, 17:46:52.897
36, 37.17, 37.76, -186.36, 6.40, 0.000, 0.000, 0.000, 17:46:52.897
37, -16.06, 26.92, -190.25, 10.87, 0.000, 0.000, 0.000, 17:46:52.897
38, -2.51, 36.91, -192.35, 9.00, 0.000, 0.000, 0.000, 17:46:52.897
39, 102.05, 41.23, -183.52, 10.35, 0.000, 0.000, 0.000, 17:46:52.911
40, 166.03, 20.43, -185.74, 7.23, 0.000, 0.000, 0.000, 17:46:52.911
41, 185.65, 20.44, -192.17, 7.59, 0.000, 0.000, 0.000, 17:46:52.925
42, 212.65, 31.98, -193.06, 5.01, 0.000, 0.000, 0.000, 17:46:52.925
43, 101.09, 36.67, -189.85, 3.80, 0.000, 0.000, 0.000, 17:46:52.926
44, -89.16, 39.90, -193.34, 7.61, 0.000, 0.000, 0.000, 17:46:52.926
45, -180.19, 47.21, -190.51, 12.86, 0.000, 0.000, 0.000, 17:46:52.941
46, -101.41, 56.47, -186.82, 11.85, 0.000, 0.000, 0.000, 17:46:52.941
47, -6.35, 60.09, -169.03, 6.20, 0.000, 0.000, 0.000, 17:46:52.941
48, -27.47, 48.68, -173.01, 8.08, 0.000, 0.000, 0.000, 17:46:52.942
49, -2.05, 44.24, -172.22, 9.51, 0.000, 0.000, 0.000, 17:46:52.956
50, -19.54, 37.62, -179.90, 7.35, 0.000, 0.000, 0.000, 17:46:52.956
51, -41.62, 36.36, -182.88, 9.45, 0.000, 0.000, 0.000, 17:46:52.971
52, -8.25, 33.73, -180.61, 6.93, 0.000, 0.000, 0.000, 17:46:52.972
53, -5.03, 24.87, -191.90, 11.23, 0.000, 0.000, 0.000, 17:46:52.972
54, 13.07, 33.23, -192.26, 11.52, 0.000, 0.000, 0.000, 17:46:52.972
55, 6.63, 41.88, -180.12, 13.42, 0.000, 0.000, 0.000, 17:46:52.986
56, 17.92, 49.14, -174.59, 8.31, 0.000, 0.000, 0.000, 17:46:52.986
57, -6.37, 43.00, -179.77, 8.09, 0.000, 0.000, 0.000, 17:46:53.001
58, 16.12, 41.45, -182.86, 9.43, 0.000, 0.000, 0.000, 17:46:53.001
59, 14.26, 33.20, -189.34, 11.76, 0.000, 0.000, 0.000, 17:46:53.001
60, 30.56, 30.28, -186.58, 10.82, 0.000, 0.000, 0.000, 17:46:53.002
61, -7.13, 29.57, -190.01, 9.05, 0.000, 0.000, 0.000, 17:46:53.016
62, 15.55, 36.79, -182.73, 5.92, 0.000, 0.000, 0.000, 17:46:53.016
63, 38.36, 39.80, -184.15, 11.40, 0.000, 0.000, 0.000, 17:46:53.031
64, 30.44, 30.82, -186.39, 9.83, 0.000, 0.000, 0.000, 17:46:53.032
65, 0.01, 37.05, -187.15, 8.43, 0.000, 0.000, 0.000, 17:46:53.032
66, 2.58, 31.35, -186.36, 11.01, 0.000, 0.000, 0.000, 17:46:53.032
67, 33.35, 38.63, -181.83, 9.77, 0.000, 0.000, 0.000, 17:46:53.046
68, 44.34, 48.75, -183.98, 7.71, 0.000, 0.000, 0.000, 17:46:53.046
69, 56.10, 37.04, -189.63, 8.89, 0.000, 0.000, 0.000, 17:46:53.061
70, 48.32, 54.82, -191.62, 11.84, 0.000, 0.000, 0.000, 17:46:53.061
71, -19.78, 43.90, -184.95, 7.54, 0.000, 0.000, 0.000, 17:46:53.062
72, 8.62, 35.48, -177.56, 8.71, 0.000, 0.000, 0.000, 17:46:53.062
73, 42.51, 34.47, -196.95, 12.15, 0.000, 0.000, 0.000, 17:46:53.076
74, 33.58, 35.91, -193.61, 10.21, 0.000, 0.000, 0.000, 17:46:53.076
75, 18.60, 41.60, -182.95, 12.63, 0.000, 0.000, 0.000, 17:46:53.091
76, 35.44, 55.29, -176.46, 5.91, 0.000, 0.000, 0.000, 17:46:53.091
77, 52.38, 49.92, -189.44, 6.53, 0.000, 0.000, 0.000, 17:46:53.092
78, 51.73, 27.91, -189.06, 9.30, 0.000, 0.000, 0.000, 17:46:53.092
79, 48.19, 44.59, -177.25, 7.10, 0.000, 0.000, 0.000, 17:46:53.106
80, 43.72, 45.01, -186.70, 7.51, 0.000, 0.000, 0.000, 17:46:53.106
81, 31.86, 51.34, -193.28, 12.08, 0.000, 0.000, 0.000, 17:46:53.135
82, 21.35, 47.87, -188.81, 11.61, 0.000, 0.000, 0.000, 17:46:53.135
83, 65.29, 33.31, -184.41, 12.93, 0.000, 0.000, 0.000, 17:46:53.136
84, 44.43, 34.75, -186.26, 10.20, 0.000, 0.000, 0.000, 17:46:53.136
85, 11.68, 56.13, -184.43, 12.68, 0.000, 0.000, 0.000, 17:46:53.137
86, 20.73, 42.55, -177.63, 11.04, 0.000, 0.000, 0.000, 17:46:53.138
87, 0.40, 33.02, -187.40, 10.02, 0.000, 0.000, 0.000, 17:46:53.151
88, -18.13, 45.73, -190.55, 12.32, 0.000, 0.000, 0.000, 17:46:53.151
89, -16.71, 51.19, -176.00, 8.38, 0.000, 0.000, 0.000, 17:46:53.151
90, -31.59, 43.90, -178.88, 7.95, 0.000, 0.000, 0.000, 17:46:53.151
91, -35.10, 48.47, -175.35, 9.74, 0.000, 0.000, 0.000, 17:46:53.166
92, -30.73, 60.46, -193.16, 8.33, 0.000, 0.000, 0.000, 17:46:53.166
93, -30.06, 33.91, -182.70, 11.70, 0.000, 0.000, 0.000, 17:46:53.181
94, -25.92, 59.66, -192.06, 9.50, 0.000, 0.000, 0.000, 17:46:53.181
95, -35.85, 66.43, -165.81, 9.05, 0.000, 0.000, 0.000, 17:46:53.196
96, -9.27, 69.15, -175.23, 12.65, 0.000, 0.000, 0.000, 17:46:53.196
97, -15.14, 56.49, -183.76, 9.35, 0.000, 0.000, 0.000, 17:46:53.197
98, -11.50, 58.25, -189.65, 8.97, 0.000, 0.000, 0.000, 17:46:53.197
99, -44.99, 60.02, -180.01, 8.86, 0.000, 0.000, 0.000, 17:46:53.211
100, -17.16, 47.10, -185.79, 13.67, 0.000, 0.000, 0.000, 17:46:53.211
101, 4.47, 41.11, -183.23, 9.09, 0.000, 0.000, 0.000, 17:46:53.211
102, 1.37, 45.59, -179.12, 6.82, 0.000, 0.000, 0.000, 17:46:53.212
103, 11.25, 48.32, -178.22, 14.23, 0.000, 0.000, 0.000, 17:46:53.227
104, 0.76, 48.62, -182.84, 11.78, 0.000, 0.000, 0.000, 17:46:53.227
105, -19.99, 39.04, -192.40, 11.80, 0.000, 0.000, 0.000, 17:46:53.241
106, 18.65, 30.55, -192.60, 11.30, 0.000, 0.000, 0.000, 17:46:53.241
107, 31.99, 29.70, -207.11, 13.16, 0.000, 0.000, 0.000, 17:46:53.242
108, 12.87, 39.30, -199.42, 11.75, 0.000, 0.000, 0.000, 17:46:53.242
109, 22.12, 36.21, -187.35, 11.60, 0.000, 0.000, 0.000, 17:46:53.256
110, 19.86, 39.84, -181.61, 7.16, 0.000, 0.000, 0.000, 17:46:53.256
111, 4.13, 38.83, -187.93, 7.55, 0.000, 0.000, 0.000, 17:46:53.271
112, 5.24, 46.12, -183.38, 11.21, 0.000, 0.000, 0.000, 17:46:53.271
113, 23.85, 23.54, -188.52, 9.23, 0.000, 0.000, 0.000, 17:46:53.271
114, 18.33, 46.75, -183.50, 8.90, 0.000, 0.000, 0.000, 17:46:53.272
115, 7.86, 34.38, -183.02, 14.02, 0.000, 0.000, 0.000, 17:46:53.286
116, -4.34, 44.18, -182.16, 8.72, 0.000, 0.000, 0.000, 17:46:53.286
117, 32.62, 47.08, -179.66, 8.60, 0.000, 0.000, 0.000, 17:46:53.301
118, 1.33, 49.62, -177.37, 8.74, 0.000, 0.000, 0.000, 17:46:53.301
119, 8.78, 47.07, -177.97, 11.36, 0.000, 0.000, 0.000, 17:46:53.301
120, 17.59, 27.33, -195.22, 9.50, 0.000, 0.000, 0.000, 17:46:53.302
121, 25.66, 42.90, -187.15, 10.31, 0.000, 0.000, 0.000, 17:46:53.316
122, 8.06, 41.78, -174.05, 4.02, 0.000, 0.000, 0.000, 17:46:53.316
123, 27.71, 45.82, -171.66, 12.99, 0.000, 0.000, 0.000, 17:46:53.331
124, 7.38, 38.86, -184.00, 11.52, 0.000, 0.000, 0.000, 17:46:53.331
125, 2.95, 37.85, -184.15, 9.02, 0.000, 0.000, 0.000, 17:46:53.332
126, 2.30, 39.26, -185.00, 8.74, 0.000, 0.000, 0.000, 17:46:53.332
127, 17.84, 18.71, -181.33, 8.29, 0.000, 0.000, 0.000, 17:46:53.346
128, 38.87, 41.09, -180.33, 10.90, 0.000, 0.000, 0.000, 17:46:53.346
129, 18.41, 41.32, -175.85, 10.50, 0.000, 0.000, 0.000, 17:46:53.361
130, 7.14, 32.16, -178.68, 12.77, 0.000, 0.000, 0.000, 17:46:53.362
131, 8.58, 38.63, -182.01, 6.79, 0.000, 0.000, 0.000, 17:46:53.362
132, 10.86, 58.13, -180.88, 11.26, 0.000, 0.000, 0.000, 17:46:53.363
133, 22.13, 44.29, -190.77, 7.69, 0.000, 0.000, 0.000, 17:46:53.376
134, 23.14, 40.84, -193.78, 7.02, 0.000, 0.000, 0.000, 17:46:53.376
135, 7.76, 47.21, -179.38, 9.04, 0.000, 0.000, 0.000, 17:46:53.390
136, 5.79, 35.31, -193.85, 11.13, 0.000, 0.000, 0.000, 17:46:53.390
137, -4.30, 43.56, -201.52, 15.48, 0.000, 0.000, 0.000, 17:46:53.391
138, 1.33, 46.17, -186.47, 8.05, 0.000, 0.000, 0.000, 17:46:53.391
139, 34.03, 36.47, -184.15, 15.50, 0.000, 0.000, 0.000, 17:46:53.421
140, 45.93, 38.80, -189.25, 7.97, 0.000, 0.000, 0.000, 17:46:53.421
141, -4.48, 48.25, -189.48, 14.13, 0.000, 0.000, 0.000, 17:46:53.422
142, -0.53, 42.28, -180.42, 10.38, 0.000, 0.000, 0.000, 17:46:53.422
143, 17.44, 35.31, -188.76, 10.72, 0.000, 0.000, 0.000, 17:46:53.422
144, -11.13, 43.90, -191.39, 8.98, 0.000, 0.000, 0.000, 17:46:53.423
145, 2.69, 45.48, -185.15, 8.71, 0.000, 0.000, 0.000, 17:46:53.436
146, 56.11, 48.83, -177.12, 4.60, 0.000, 0.000, 0.000, 17:46:53.436
147, 36.55, 33.98, -187.83, 6.71, 0.000, 0.000, 0.000, 17:46:53.451
148, -3.07, 38.28, -186.03, 11.89, 0.000, 0.000, 0.000, 17:46:53.451
149, -6.76, 42.65, -183.06, 10.51, 0.000, 0.000, 0.000, 17:46:53.452
150, 13.02, 43.57, -181.87, 8.65, 0.000, 0.000, 0.000, 17:46:53.452
151, -14.84, 48.30, -184.65, 9.70, 0.000, 0.000, 0.000, 17:46:53.466
152, 13.09, 42.39, -191.95, 7.10, 0.000, 0.000, 0.000, 17:46:53.466
153, 50.94, 45.02, -183.46, 11.55, 0.000, 0.000, 0.000, 17:46:53.481
154, 35.30, 32.83, -187.97, 9.35, 0.000, 0.000, 0.000, 17:46:53.481
155, -11.19, 35.14, -190.69, 8.87, 0.000, 0.000, 0.000, 17:46:53.482
156, 14.08, 27.81, -178.24, 12.44, 0.000, 0.000, 0.000, 17:46:53.482
157, 11.52, 38.19, -179.22, 9.96, 0.000, 0.000, 0.000, 17:46:53.496
158, 4.80, 41.23, -184.16, 6.68, 0.000, 0.000, 0.000, 17:46:53.496
159, 5.03, 35.10, -191.58, 10.60, 0.000, 0.000, 0.000, 17:46:53.511
160, 35.66, 45.16, -179.05, 11.85, 0.000, 0.000, 0.000, 17:46:53.511
161, 4.67, 19.90, -181.45, 9.09, 0.000, 0.000, 0.000, 17:46:53.511
162, 10.11, 33.32, -182.79, 8.97, 0.000, 0.000, 0.000, 17:46:53.512
163, -25.63, 53.31, -174.99, 13.33, 0.000, 0.000, 0.000, 17:46:53.525
164, 9.50, 51.64, -176.27, 9.65, 0.000, 0.000, 0.000, 17:46:53.526
165, 30.70, 50.19, -182.40, 9.36, 0.000, 0.000, 0.000, 17:46:53.556
166, 37.41, 49.55, -183.13, 9.80, 0.000, 0.000, 0.000, 17:46:53.556
167, 31.87, 52.19, -187.40, 10.78, 0.000, 0.000, 0.000, 17:46:53.557
168, 2.96, 33.40, -183.98, 8.38, 0.000, 0.000, 0.000, 17:46:53.557
169, -3.38, 25.50, -184.21, 8.36, 0.000, 0.000, 0.000, 17:46:53.557
170, 10.36, 53.71, -192.30, 9.23, 0.000, 0.000, 0.000, 17:46:53.557
171, 10.64, 24.90, -211.59, 6.86, 0.000, 0.000, 0.000, 17:46:53.571
172, 2.49, 38.67, -167.13, 11.81, 0.000, 0.000, 0.000, 17:46:53.571
173, 21.37, 45.76, -163.17, 11.69, 0.000, 0.000, 0.000, 17:46:53.571
174, 19.37, 33.18, -169.14, 8.33, 0.000, 0.000, 0.000, 17:46:53.571
175, -5.31, 27.84, -160.07, 10.13, 0.000, 0.000, 0.000, 17:46:53.586
176, 17.04, 33.50, -166.64, 8.82, 0.000, 0.000, 0.000, 17:46:53.586
177, 52.10, 16.39, -170.79, 9.35, 0.000, 0.000, 0.000, 17:46:53.601
178, 13.79, 25.17, -169.57, 11.28, 0.000, 0.000, 0.000, 17:46:53.601
179, -23.35, 30.68, -171.43, 9.81, 0.000, 0.000, 0.000, 17:46:53.601
180, 34.39, 18.25, -177.75, 9.65, 0.000, 0.000, 0.000, 17:46:53.601
181, 14.52, 19.29, -187.79, 18.22, 0.000, 0.000, 0.000, 17:46:53.616
182, 3.84, 23.09, -174.80, 13.00, 0.000, 0.000, 0.000, 17:46:53.616
183, -4.89, 34.10, -169.49, 11.01, 0.000, 0.000, 0.000, 17:46:53.631
184, 6.22, 11.03, -177.80, 8.25, 0.000, 0.000, 0.000, 17:46:53.631
185, -5.82, 10.51, -179.97, 11.49, 0.000, 0.000, 0.000, 17:46:53.632
186, 21.49, 52.07, -187.98, 10.35, 0.000, 0.000, 0.000, 17:46:53.632
187, 60.42, 49.63, -184.37, 7.44, 0.000, 0.000, 0.000, 17:46:53.646
188, 17.86, 50.11, -175.74, 9.68, 0.000, 0.000, 0.000, 17:46:53.646
189, 16.23, 41.89, -178.05, 11.82, 0.000, 0.000, 0.000, 17:46:53.661
190, -14.14, 26.06, -194.07, 7.10, 0.000, 0.000, 0.000, 17:46:53.662
191, -0.46, 22.31, -192.63, 2.71, 0.000, 0.000, 0.000, 17:46:53.662
192, 29.75, 34.48, -175.19, 10.16, 0.000, 0.000, 0.000, 17:46:53.662
193, 21.38, 38.20, -182.58, 9.16, 0.000, 0.000, 0.000, 17:46:53.676
194, 5.33, 39.04, -191.06, 8.64, 0.000, 0.000, 0.000, 17:46:53.676
195, -0.02, 38.90, -192.79, 8.92, 0.000, 0.000, 0.000, 17:46:53.691
196, 32.51, 35.27, -182.16, 12.66, 0.000, 0.000, 0.000, 17:46:53.691
197, 25.79, 35.35, -186.71, 14.07, 0.000, 0.000, 0.000, 17:46:53.691
198, -14.40, 27.63, -195.23, 9.33, 0.000, 0.000, 0.000, 17:46:53.692
199, 0.21, 31.13, -179.83, 8.26, 0.000, 0.000, 0.000, 17:46:53.706
200, 33.48, 40.32, -196.12, 7.35, 0.000, 0.000, 0.000, 17:46:53.706
0, 25.14, 28.90, -181.29, 11.29, 0.000, 0.000, 0.000, 17:46:53.707
1, 14.98, 44.10, -184.10, 16.20, 0.000, 0.000, 0.000, 17:46:53.721
2, 5.68, 47.85, -178.44, 8.48, 0.000, 0.000, 0.000, 17:46:53.721
3, 15.91, 36.06, -172.62, 13.67, 0.000, 0.000, 0.000, 17:46:53.736
4, -0.80, 60.11, -173.26, 13.13, 0.000, 0.000, 0.000, 17:46:53.736
5, 4.40, 37.96, -190.67, 6.57, 0.000, 0.000, 0.000, 17:46:53.736
6, 16.31, 32.08, -197.80, 10.69, 0.000, 0.000, 0.000, 17:46:53.737
7, 6.62, 37.82, -193.96, 7.47, 0.000, 0.000, 0.000, 17:46:53.751
8, 48.70, 34.66, -171.15, 12.50, 0.000, 0.000, 0.000, 17:46:53.751
9, 17.03, 48.11, -187.11, 14.32, 0.000, 0.000, 0.000, 17:46:53.766
10, 11.82, 58.81, -174.42, 6.72, 0.000, 0.000, 0.000, 17:46:53.766
11, 18.48, 53.07, -180.73, 11.72, 0.000, 0.000, 0.000, 17:46:53.767
12, 3.28, 41.40, -192.28, 9.52, 0.000, 0.000, 0.000, 17:46:53.767
13, -1.78, 25.56, -197.74, 7.33, 0.000, 0.000, 0.000, 17:46:53.781
14, 12.73, 41.14, -183.61, 5.86, 0.000, 0.000, 0.000, 17:46:53.781
15, 39.11, 51.20, -168.85, 7.40, 0.000, 0.000, 0.000, 17:46:53.796
16, 32.28, 25.01, -176.45, 4.27, 0.000, 0.000, 0.000, 17:46:53.796
17, -3.25, 43.36, -188.85, 8.33, 0.000, 0.000, 0.000, 17:46:53.796
18, 17.64, 45.19, -188.36, 9.94, 0.000, 0.000, 0.000, 17:46:53.796
19, 29.55, 33.80, -191.30, 11.61, 0.000, 0.000, 0.000, 17:46:53.811
20, -6.55, 43.21, -178.59, 10.10, 0.000, 0.000, 0.000, 17:46:53.811
21, -6.50, 44.85, -181.44, 12.39, 0.000, 0.000, 0.000, 17:46:53.826
22, 11.38, 37.57, -184.36, 14.49, 0.000, 0.000, 0.000, 17:46:53.826
23, -0.67, 40.89, -187.11, 8.73, 0.000, 0.000, 0.000, 17:46:53.827
24, 2.38, 41.51, -181.64, 4.92, 0.000, 0.000, 0.000, 17:46:53.827
25, 42.03, 35.55, -186.49, 7.18, 0.000, 0.000, 0.000, 17:46:53.841
26, 7.86, 42.07, -186.63, 8.84, 0.000, 0.000, 0.000, 17:46:53.841
27, 1.00, 38.48, -179.33, 13.67, 0.000, 0.000, 0.000, 17:46:53.856
28, -5.83, 60.16, -168.96, 14.66, 0.000, 0.000, 0.000, 17:46:53.856
29, 15.22, 24.14, -178.93, 9.26, 0.000, 0.000, 0.000, 17:46:53.856
30, 7.39, 50.35, -169.69, 8.18, 0.000, 0.000, 0.000, 17:46:53.856
31, 16.44, 58.97, -172.59, 10.55, 0.000, 0.000, 0.000, 17:46:53.871
32, 34.32, 45.92, -171.86, 7.67, 0.000, 0.000, 0.000, 17:46:53.871
33, -12.32, 39.30, -177.09, 11.70, 0.000, 0.000, 0.000, 17:46:53.886
34, -11.75, 24.22, -196.66, 8.74, 0.000, 0.000, 0.000, 17:46:53.886
35, 113.23, 37.18, -186.11, 8.38, 0.000, 0.000, 0.000, 17:46:53.886
36, 170.97, 39.63, -184.40, 6.75, 0.000, 0.000, 0.000, 17:46:53.887
37, 174.99, 23.68, -194.68, 9.97, 0.000, 0.000, 0.000, 17:46:53.901
38, 226.10, 40.49, -179.09, 8.14, 0.000, 0.000, 0.000, 17:46:53.901
39, 123.10, 38.66, -191.17, 12.58, 0.000, 0.000, 0.000, 17:46:53.916
40, -94.77, 41.25, -192.99, 10.44, 0.000, 0.000, 0.000, 17:46:53.917
41, -175.97, 47.65, -185.21, 7.52, 0.000, 0.000, 0.000, 17:46:53.917
42, -105.08, 33.83, -175.28, 10.92, 0.000, 0.000, 0.000, 17:46:53.917
43, -23.05, 50.61, -175.51, 10.00, 0.000, 0.000, 0.000, 17:46:53.931
44, -19.63, 53.24, -166.20, 6.94, 0.000, 0.000, 0.000, 17:46:53.931
45, -39.03, 19.34, -182.38, 10.99, 0.000, 0.000, 0.000, 17:46:53.946
46, -2.19, 55.78, -183.05, 11.46, 0.000, 0.000, 0.000, 17:46:53.946
47, -25.31, 48.36, -179.26, 11.81, 0.000, 0.000, 0.000, 17:46:53.946
48, -16.23, 30.93, -177.23, 10.87, 0.000, 0.000, 0.000, 17:46:53.946
49, 8.96, 24.29, -205.81, 9.29, 0.000, 0.000, 0.000, 17:46:53.961
50, -3.19, 51.74, -189.26, 10.65, 0.000, 0.000, 0.000, 17:46:53.961
51, 2.31, 43.23, -182.69, 8.31, 0.000, 0.000, 0.000, 17:46:53.976
52, 3.22, 44.87, -165.66, 10.46, 0.000, 0.000, 0.000, 17:46:53.976
53, 7.54, 29.68, -187.64, 9.88, 0.000, 0.000, 0.000, 17:46:53.976
54, 14.39, 16.92, -209.32, 12.30, 0.000, 0.000, 0.000, 17:46:53.976
55, 18.51, 50.72, -175.56, 7.37, 0.000, 0.000, 0.000, 17:46:53.990
56, 13.85, 54.14, -185.30, 9.29, 0.000, 0.000, 0.000, 17:46:53.991
57, 16.50, 41.81, -183.19, 16.05, 0.000, 0.000, 0.000, 17:46:54.006
58, 43.59, 39.39, -177.84, 10.24, 0.000, 0.000, 0.000, 17:46:54.006
59, 30.32, 42.84, -183.51, 9.40, 0.000, 0.000, 0.000, 17:46:54.007
60, 22.92, 36.82, -190.50, 11.35, 0.000, 0.000, 0.000, 17:46:54.007
61, -2.31, 49.54, -206.62, 10.63, 0.000, 0.000, 0.000, 17:46:54.021
62, 31.12, 37.63, -176.69, 5.11, 0.000, 0.000, 0.000, 17:46:54.021
63, 1.56, 36.59, -178.51, 11.25, 0.000, 0.000, 0.000, 17:46:54.036
64, 13.66, 59.70, -176.49, 11.05, 0.000, 0.000, 0.000, 17:46:54.036
65, 36.27, 68.10, -185.97, 9.42, 0.000, 0.000, 0.000, 17:46:54.036
66, 47.89, 58.45, -185.55, 8.63, 0.000, 0.000, 0.000, 17:46:54.036
67, 24.64, 53.73, -195.72, 12.05, 0.000, 0.000, 0.000, 17:46:54.051
68, 20.76, 54.38, -195.92, 8.25, 0.000, 0.000, 0.000, 17:46:54.051
69, 20.81, 55.27, -188.21, 9.68, 0.000, 0.000, 0.000, 17:46:54.066
70, 22.71, 36.61, -197.78, 12.19, 0.000, 0.000, 0.000, 17:46:54.066
71, 13.63, 57.99, -183.52, 7.38, 0.000, 0.000, 0.000, 17:46:54.066
72, 63.94, 52.19, -187.53, 11.00, 0.000, 0.000, 0.000, 17:46:54.067
73, 49.95, 42.59, -182.53, 14.42, 0.000, 0.000, 0.000, 17:46:54.081
74, 45.56, 45.40, -181.89, 6.62, 0.000, 0.000, 0.000, 17:46:54.081
75, 41.69, 59.11, -183.73, 12.61, 0.000, 0.000, 0.000, 17:46:54.096
76, 35.10, 65.27, -182.64, 13.23, 0.000, 0.000, 0.000, 17:46:54.096
77, 24.97, 48.57, -192.62, 6.49, 0.000, 0.000, 0.000, 17:46:54.096
78, 39.07, 66.08, -191.75, 5.67, 0.000, 0.000, 0.000, 17:46:54.096
79, 41.94, 47.62, -191.18, 7.12, 0.000, 0.000, 0.000, 17:46:54.112
80, 45.33, 41.63, -199.04, 11.24, 0.000, 0.000, 0.000, 17:46:54.112
81, 16.51, 36.16, -191.04, 7.74, 0.000, 0.000, 0.000, 17:46:54.127
82, 8.27, 47.04, -181.28, 8.60, 0.000, 0.000, 0.000, 17:46:54.127
83, 24.49, 49.98, -179.88, 4.19, 0.000, 0.000, 0.000, 17:46:54.128
84, 24.94, 47.29, -190.38, 9.04, 0.000, 0.000, 0.000, 17:46:54.128
85, 9.62, 44.52, -176.67, 8.49, 0.000, 0.000, 0.000, 17:46:54.141
86, -12.28, 45.09, -187.93, 7.01, 0.000, 0.000, 0.000, 17:46:54.141
87, -32.64, 48.52, -170.53, 11.10, 0.000, 0.000, 0.000, 17:46:54.156
88, -21.04, 35.79, -177.64, 7.29, 0.000, 0.000, 0.000, 17:46:54.156
89, -30.36, 53.30, -180.14, 13.62, 0.000, 0.000, 0.000, 17:46:54.156
90, -30.06, 44.93, -182.57, 10.44, 0.000, 0.000, 0.000, 17:46:54.156
91, -39.17, 36.01, -191.08, 13.81, 0.000, 0.000, 0.000, 17:46:54.172
92, -27.59, 45.22, -174.39, 6.78, 0.000, 0.000, 0.000, 17:46:54.172
93, -20.25, 56.72, -165.07, 10.71, 0.000, 0.000, 0.000, 17:46:54.186
94, -35.70, 52.64, -177.08, 8.31, 0.000, 0.000, 0.000, 17:46:54.186
95, -8.48, 56.11, -170.70, 10.08, 0.000, 0.000, 0.000, 17:46:54.187
96, -3.90, 25.80, -170.18, 10.70, 0.000, 0.000, 0.000, 17:46:54.187
97, -29.81, 33.45, -179.80, 15.48, 0.000, 0.000, 0.000, 17:46:54.216
98, 0.49, 42.57, -189.38, 9.37, 0.000, 0.000, 0.000, 17:46:54.216
99, 2.43, 46.74, -172.36, 11.04, 0.000, 0.000, 0.000, 17:46:54.217
100, 19.78, 51.95, -178.43, 11.12, 0.000, 0.000, 0.000, 17:46:54.217
101, 11.53, 57.27, -184.39, 12.23, 0.000, 0.000, 0.000, 17:46:54.217
102, -11.96, 45.59, -187.69, 5.88, 0.000, 0.000, 0.000, 17:46:54.217
103, 0.95, 39.75, -179.21, 9.38, 0.000, 0.000, 0.000, 17:46:54.231
104, 20.52, 37.21, -176.07, 10.39, 0.000, 0.000, 0.000, 17:46:54.231
105, 14.05, 44.59, -180.50, 7.71, 0.000, 0.000, 0.000, 17:46:54.245
106, 19.67, 40.30, -192.66, 10.91, 0.000, 0.000, 0.000, 17:46:54.246
107, -7.37, 30.73, -195.38, 14.23, 0.000, 0.000, 0.000, 17:46:54.246
108, 10.55, 32.11, -173.23, 9.63, 0.000, 0.000, 0.000, 17:46:54.246
109, 28.01, 39.38, -169.90, 10.36, 0.000, 0.000, 0.000, 17:46:54.261
110, 2.83, 40.88, -183.83, 6.23, 0.000, 0.000, 0.000, 17:46:54.261
111, 15.33, 46.52, -177.79, 10.99, 0.000, 0.000, 0.000, 17:46:54.276
112, 25.23, 44.83, -182.46, 9.13, 0.000, 0.000, 0.000, 17:46:54.276
113, 13.60, 36.45, -183.99, 6.73, 0.000, 0.000, 0.000, 17:46:54.277
114, 13.56, 28.23, -183.20, 11.01, 0.000, 0.000, 0.000, 17:46:54.277
115, 34.19, 35.52, -172.72, 12.64, 0.000, 0.000, 0.000, 17:46:54.291
116, 18.76, 39.18, -191.58, 4.26, 0.000, 0.000, 0.000, 17:46:54.291
117, -4.90, 40.10, -186.97, 9.11, 0.000, 0.000, 0.000, 17:46:54.321
118, -7.53, 42.29, -176.73, 10.14, 0.000, 0.000, 0.000, 17:46:54.321
119, 22.50, 35.93, -185.21, 7.81, 0.000, 0.000, 0.000, 17:46:54.322
120, 15.66, 9.21, -181.88, 9.06, 0.000, 0.000, 0.000, 17:46:54.322
121, -2.32, 41.26, -182.89, 5.93, 0.000, 0.000, 0.000, 17:46:54.322
122, 25.93, 43.59, -179.03, 9.27, 0.000, 0.000, 0.000, 17:46:54.322
123, 2.15, 44.75, -191.16, 7.10, 0.000, 0.000, 0.000, 17:46:54.336
124, 29.44, 44.02, -190.61, 8.10, 0.000, 0.000, 0.000, 17:46:54.336
125, 36.49, 39.61, -183.41, 15.26, 0.000, 0.000, 0.000, 17:46:54.337
126, 21.67, 41.15, -190.44, 12.90, 0.000, 0.000, 0.000, 17:46:54.337
127, 6.21, 40.90, -185.53, 9.10, 0.000, 0.000, 0.000, 17:46:54.351
128, -2.12, 24.01, -180.78, 4.33, 0.000, 0.000, 0.000, 17:46:54.351
129, 0.47, 17.56, -191.83, 9.32, 0.000, 0.000, 0.000, 17:46:54.381
130, 8.93, 46.06, -175.93, 10.30, 0.000, 0.000, 0.000, 17:46:54.382
131, 36.03, 65.08, -190.03, 6.38, 0.000, 0.000, 0.000, 17:46:54.382
132, 5.60, 45.88, -190.25, 9.51, 0.000, 0.000, 0.000, 17:46:54.382
133, 28.27, 48.43, -173.07, 11.60, 0.000, 0.000, 0.000, 17:46:54.382
134, 6.46, 37.65, -170.67, 11.19, 0.000, 0.000, 0.000, 17:46:54.382
135, 21.76, 26.70, -180.41, 11.54, 0.000, 0.000, 0.000, 17:46:54.396
136, 12.58, 33.40, -181.88, 10.73, 0.000, 0.000, 0.000, 17:46:54.396
137, -23.32, 22.00, -186.07, 14.49, 0.000, 0.000, 0.000, 17:46:54.396
138, 7.34, 47.50, -188.05, 9.00, 0.000, 0.000, 0.000, 17:46:54.397
139, 39.13, 38.52, -197.04, 7.99, 0.000, 0.000, 0.000, 17:46:54.426
140, -7.64, 51.04, -184.11, 4.24, 0.000, 0.000, 0.000, 17:46:54.427
141, -4.22, 64.10, -180.38, 5.82, 0.000, 0.000, 0.000, 17:46:54.427
142, 27.83, 40.04, -187.62, 6.74, 0.000, 0.000, 0.000, 17:46:54.427
143, 22.79, 48.75, -196.22, 7.55, 0.000, 0.000, 0.000, 17:46:54.427
144, 22.42, 64.90, -187.99, 6.36, 0.000, 0.000, 0.000, 17:46:54.428
145, 29.70, 59.25, -183.46, 14.86, 0.000, 0.000, 0.000, 17:46:54.441
146, -10.07, 31.16, -186.00, 10.57, 0.000, 0.000, 0.000, 17:46:54.441
147, -14.67, 31.07, -175.99, 10.43, 0.000, 0.000, 0.000, 17:46:54.456
148, 9.72, 29.07, -188.25, 12.75, 0.000, 0.000, 0.000, 17:46:54.456
149, 41.25, 55.09, -174.54, 13.40, 0.000, 0.000, 0.000, 17:46:54.457
150, 29.31, 61.62, -174.76, 7.54, 0.000, 0.000, 0.000, 17:46:54.457
151, 14.47, 59.66, -185.32, 9.76, 0.000, 0.000, 0.000, 17:46:54.471
152, 31.33, 50.28, -184.84, 7.65, 0.000, 0.000, 0.000, 17:46:54.471
153, 6.16, 40.73, -188.37, 10.60, 0.000, 0.000, 0.000, 17:46:54.486
154, 5.78, 40.59, -192.12, 16.04, 0.000, 0.000, 0.000, 17:46:54.486
155, 2.47, 32.70, -194.32, 5.37, 0.000, 0.000, 0.000, 17:46:54.501
156, 2.94, 27.10, -192.03, 7.90, 0.000, 0.000, 0.000, 17:46:54.501
157, -13.72, 10.35, -189.71, 11.47, 0.000, 0.000, 0.000, 17:46:54.502
158, 13.29, 40.88, -187.16, 7.68, 0.000, 0.000, 0.000, 17:46:54.502
159, 30.84, 47.32, -187.56, 13.20, 0.000, 0.000, 0.000, 17:46:54.531
160, 28.88, 34.93, -188.92, 9.87, 0.000, 0.000, 0.000, 17:46:54.531
161, -4.05, 31.88, -183.65, 13.26, 0.000, 0.000, 0.000, 17:46:54.532
162, 24.94, 43.64, -187.75, 7.71, 0.000, 0.000, 0.000, 17:46:54.532
163, -6.29, 43.74, -186.13, 9.23, 0.000, 0.000, 0.000, 17:46:54.532
164, 8.68, 50.30, -183.69, 11.69, 0.000, 0.000, 0.000, 17:46:54.532
165, 33.61, 29.88, -187.29, 8.53, 0.000, 0.000, 0.000, 17:46:54.546
166, 16.00, 33.20, -180.36, 4.94, 0.000, 0.000, 0.000, 17:46:54.546
167, -9.22, 17.83, -194.88, 13.03, 0.000, 0.000, 0.000, 17:46:54.546
168, 31.57, 39.31, -188.90, 8.38, 0.000, 0.000, 0.000, 17:46:54.546
169, 15.39, 44.82, -182.02, 9.52, 0.000, 0.000, 0.000, 17:46:54.560
170, 6.39, 45.13, -171.63, 9.46, 0.000, 0.000, 0.000, 17:46:54.561
171, 4.65, 29.24, -177.61, 13.89, 0.000, 0.000, 0.000, 17:46:54.576
172, 13.52, 49.84, -178.25, 11.64, 0.000, 0.000, 0.000, 17:46:54.576
173, 19.94, 27.99, -194.67, 11.43, 0.000, 0.000, 0.000, 17:46:54.576
174, 15.73, 49.33, -191.56, 8.52, 0.000, 0.000, 0.000, 17:46:54.576
175, 29.04, 29.92, -180.00, 8.85, 0.000, 0.000, 0.000, 17:46:54.591
176, 30.13, 45.28, -184.05, 7.41, 0.000, 0.000, 0.000, 17:46:54.591
177, -13.03, 44.38, -188.99, 10.85, 0.000, 0.000, 0.000, 17:46:54.606
178, -17.79, 36.10, -192.17, 11.27, 0.000, 0.000, 0.000, 17:46:54.606
179, 21.39, 35.60, -180.73, 10.62, 0.000, 0.000, 0.000, 17:46:54.606
180, 14.24, 16.00, -192.16, 9.61, 0.000, 0.000, 0.000, 17:46:54.607
181, 23.04, 32.67, -183.41, 10.34, 0.000, 0.000, 0.000, 17:46:54.621
182, 56.21, 47.17, -170.45, 2.95, 0.000, 0.000, 0.000, 17:46:54.621
183, 13.82, 50.38, -188.70, 8.24, 0.000, 0.000, 0.000, 17:46:54.636
184, -11.41, 34.83, -177.83, 9.17, 0.000, 0.000, 0.000, 17:46:54.636
185, 10.44, 47.70, -175.60, 9.61, 0.000, 0.000, 0.000, 17:46:54.636
186, 25.61, 54.30, -183.47, 10.97, 0.000, 0.000, 0.000, 17:46:54.637
187, 26.58, 47.87, -176.36, 10.49, 0.000, 0.000, 0.000, 17:46:54.651
188, 21.24, 47.01, -173.21, 10.51, 0.000, 0.000, 0.000, 17:46:54.651
189, 17.98, 29.17, -178.06, 9.80, 0.000, 0.000, 0.000, 17:46:54.666
190, -2.66, 14.68, -183.23, 11.26, 0.000, 0.000, 0.000, 17:46:54.666
191, -11.20, 57.97, -175.56, 9.02, 0.000, 0.000, 0.000, 17:46:54.666
192, 34.28, 54.39, -184.75, 7.06, 0.000, 0.000, 0.000, 17:46:54.666
193, 24.52, 60.28, -180.21, 10.21, 0.000, 0.000, 0.000, 17:46:54.697
194, -11.12, 46.47, -189.97, 7.66, 0.000, 0.000, 0.000, 17:46:54.697
195, -9.14, 49.90, -184.82, 9.85, 0.000, 0.000, 0.000, 17:46:54.698
196, -19.74, 30.68, -188.52, 8.10, 0.000, 0.000, 0.000, 17:46:54.698
197, 8.30, 18.24, -173.30, 13.67, 0.000, 0.000, 0.000, 17:46:54.698
198, 28.51, 50.22, -171.30, 11.27, 0.000, 0.000, 0.000, 17:46:54.699
199, 28.56, 51.20, -170.97, 9.90, 0.000, 0.000, 0.000, 17:46:54.711
200, 1.55, 47.98, -188.07, 10.50, 0.000, 0.000, 0.000, 17:46:54.711
0, 20.79, 53.63, -176.55, 6.71, 0.000, 0.000, 0.000, 17:46:54.711
1, 20.90, 28.20, -174.72, 11.37, 0.000, 0.000, 0.000, 17:46:54.725
2, 17.00, 42.02, -185.96, 9.97, 0.000, 0.000, 0.000, 17:46:54.725
3, -6.84, 55.26, -175.71, 11.60, 0.000, 0.000, 0.000, 17:46:54.741
4, 4.53, 48.62, -172.51, 10.36, 0.000, 0.000, 0.000, 17:46:54.741
5, 41.84, 21.64, -186.20, 7.14, 0.000, 0.000, 0.000, 17:46:54.742
6, 87.83, 23.83, -212.51, 8.38, 0.000, 0.000, 0.000, 17:46:54.742
7, 147.65, 39.22, -174.13, 10.53, 0.000, 0.000, 0.000, 17:46:54.756
8, 184.25, 51.88, -186.26, 7.79, 0.000, 0.000, 0.000, 17:46:54.756
9, 212.71, 31.51, -187.33, 12.13, 0.000, 0.000, 0.000, 17:46:54.771
10, 84.07, 46.02, -184.85, 11.32, 0.000, 0.000, 0.000, 17:46:54.771
11, -72.25, 24.56, -195.70, 15.73, 0.000, 0.000, 0.000, 17:46:54.771
12, -143.09, 24.91, -182.84, 9.81, 0.000, 0.000, 0.000, 17:46:54.772
13, -130.03, 62.37, -172.32, 12.61, 0.000, 0.000, 0.000, 17:46:54.786
14, -39.39, 60.15, -190.91, 7.98, 0.000, 0.000, 0.000, 17:46:54.786
15, -15.89, 49.57, -158.44, 12.79, 0.000, 0.000, 0.000, 17:46:54.801
16, -37.21, 56.80, -155.14, 12.76, 0.000, 0.000, 0.000, 17:46:54.802
17, 11.05, 33.58, -164.12, 11.06, 0.000, 0.000, 0.000, 17:46:54.802
18, -1.16, 36.90, -182.32, 9.92, 0.000, 0.000, 0.000, 17:46:54.802
19, -17.59, 23.98, -168.22, 11.28, 0.000, 0.000, 0.000, 17:46:54.816
20, -9.37, 11.23, -178.81, 7.38, 0.000, 0.000, 0.000, 17:46:54.816
21, 0.69, 34.02, -170.63, 8.89, 0.000, 0.000, 0.000, 17:46:54.830
22, 10.14, 21.15, -172.07, 10.38, 0.000, 0.000, 0.000, 17:46:54.830
23, 17.87, 24.57, -175.26, 6.67, 0.000, 0.000, 0.000, 17:46:54.846
24, 13.39, 23.84, -179.32, 8.95, 0.000, 0.000, 0.000, 17:46:54.847
25, 11.80, 21.79, -190.40, 12.02, 0.000, 0.000, 0.000, 17:46:54.847
26, 16.93, 15.84, -185.27, 7.03, 0.000, 0.000, 0.000, 17:46:54.847
27, 27.74, 38.58, -180.05, 10.16, 0.000, 0.000, 0.000, 17:46:54.860
28, 7.84, 13.10, -185.63, 8.03, 0.000, 0.000, 0.000, 17:46:54.860
29, -3.30, 41.56, -180.61, 7.91, 0.000, 0.000, 0.000, 17:46:54.861
30, 31.46, 37.38, -178.42, 12.28, 0.000, 0.000, 0.000, 17:46:54.861
31, 39.69, 47.58, -171.42, 9.82, 0.000, 0.000, 0.000, 17:46:54.876
32, 16.39, 47.61, -174.15, 7.94, 0.000, 0.000, 0.000, 17:46:54.876
33, 13.66, 49.98, -171.31, 11.09, 0.000, 0.000, 0.000, 17:46:54.891
34, 26.30, 43.32, -181.58, 7.72, 0.000, 0.000, 0.000, 17:46:54.891
35, 27.62, 28.93, -189.75, 6.29, 0.000, 0.000, 0.000, 17:46:54.891
36, 40.43, 32.46, -202.16, 9.19, 0.000, 0.000, 0.000, 17:46:54.891
37, 26.56, 28.48, -186.01, 8.24, 0.000, 0.000, 0.000, 17:46:54.906
38, -8.77, 31.91, -187.15, 9.85, 0.000, 0.000, 0.000, 17:46:54.906
39, 2.85, 29.79, -191.17, 14.88, 0.000, 0.000, 0.000, 17:46:54.921
40, 58.70, 31.15, -191.97, 11.43, 0.000, 0.000, 0.000, 17:46:54.922
41, 52.44, 28.77, -198.78, 10.46, 0.000, 0.000, 0.000, 17:46:54.922
42, 29.68, 35.69, -198.19, 11.08, 0.000, 0.000, 0.000, 17:46:54.922
43, 29.74, 34.24, -183.11, 7.21, 0.000, 0.000, 0.000, 17:46:54.936
44, 45.91, 36.07, -185.80, 7.97, 0.000, 0.000, 0.000, 17:46:54.936
45, 48.11, 36.59, -176.58, 10.37, 0.000, 0.000, 0.000, 17:46:54.951
46, 15.17, 39.66, -194.79, 15.51, 0.000, 0.000, 0.000, 17:46:54.952
47, 39.49, 49.56, -179.04, 8.70, 0.000, 0.000, 0.000, 17:46:54.952
48, 58.30, 57.39, -182.92, 14.40, 0.000, 0.000, 0.000, 17:46:54.952
49, 47.76, 45.32, -181.50, 11.48, 0.000, 0.000, 0.000, 17:46:54.966
50, 44.21, 36.05, -184.40, 11.95, 0.000, 0.000, 0.000, 17:46:54.966
51, 12.62, 42.05, -174.69, 12.54, 0.000, 0.000, 0.000, 17:46:54.981
52, 37.65, 60.26, -167.51, 7.72, 0.000, 0.000, 0.000, 17:46:54.981
53, 28.46, 56.09, -178.01, 9.72, 0.000, 0.000, 0.000, 17:46:54.981
54, 30.30, 53.92, -178.65, 6.40, 0.000, 0.000, 0.000, 17:46:54.981
55, -13.50, 47.64, -192.86, 6.92, 0.000, 0.000, 0.000, 17:46:54.996
56, -24.80, 39.34, -179.13, 9.65, 0.000, 0.000, 0.000, 17:46:54.996
57, -17.33, 49.67, -179.46, 7.83, 0.000, 0.000, 0.000, 17:46:55.011
58, -22.04, 40.30, -166.10, 10.39, 0.000, 0.000, 0.000, 17:46:55.011
59, -20.52, 42.95, -171.75, 7.96, 0.000, 0.000, 0.000, 17:46:55.012
60, -51.16, 61.42, -171.77, 7.21, 0.000, 0.000, 0.000, 17:46:55.012
61, -35.54, 58.71, -177.88, 11.15, 0.000, 0.000, 0.000, 17:46:55.026
62, -39.54, 56.65, -177.77, 8.83, 0.000, 0.000, 0.000, 17:46:55.026
63, -54.77, 55.29, -169.81, 9.57, 0.000, 0.000, 0.000, 17:46:55.041
64, 27.31, 44.34, -172.22, 9.64, 0.000, 0.000, 0.000, 17:46:55.042
65, -24.90, 43.36, -179.13, 12.67, 0.000, 0.000, 0.000, 17:46:55.042
66, -36.06, 48.55, -180.31, 17.27, 0.000, 0.000, 0.000, 17:46:55.042
67, -7.74, 26.91, -188.00, 16.21, 0.000, 0.000, 0.000, 17:46:55.056
68, 8.38, 39.48, -183.35, 13.14, 0.000, 0.000, 0.000, 17:46:55.056
69, -35.46, 37.54, -189.93, 16.33, 0.000, 0.000, 0.000, 17:46:55.071
70, -2.45, 46.70, -200.58, 15.17, 0.000, 0.000, 0.000, 17:46:55.071
71, 41.24, 58.00, -188.71, 9.69, 0.000, 0.000, 0.000, 17:46:55.071
72, 20.45, 43.75, -175.64, 12.89, 0.000, 0.000, 0.000, 17:46:55.071
73, -18.54, 29.27, -181.83, 13.08, 0.000, 0.000, 0.000, 17:46:55.086
74, 0.84, 29.73, -174.85, 11.92, 0.000, 0.000, 0.000, 17:46:55.086
75, 23.01, 23.31, -192.11, 11.62, 0.000, 0.000, 0.000, 17:46:55.101
76, 15.10, 43.45, -185.14, 11.56, 0.000, 0.000, 0.000, 17:46:55.101
77, 18.56, 61.37, -181.84, 13.50, 0.000, 0.000, 0.000, 17:46:55.101
78, 37.61, 48.76, -178.16, 3.37, 0.000, 0.000, 0.000, 17:46:55.102
79, -8.95, 44.03, -170.01, 6.75, 0.000, 0.000, 0.000, 17:46:55.116
80, -10.68, 42.44, -178.03, 9.88, 0.000, 0.000, 0.000, 17:46:55.116
81, 7.77, 20.28, -188.29, 12.85, 0.000, 0.000, 0.000, 17:46:55.131
82, 20.30, 24.71, -182.98, 12.62, 0.000, 0.000, 0.000, 17:46:55.131
83, 6.86, 44.20, -190.94, 9.52, 0.000, 0.000, 0.000, 17:46:55.131
84, 32.86, 56.62, -183.48, 7.94, 0.000, 0.000, 0.000, 17:46:55.131
85, 20.24, 47.41, -181.75, 12.67, 0.000, 0.000, 0.000, 17:46:55.146
86, 22.38, 30.46, -187.03, 10.04, 0.000, 0.000, 0.000, 17:46:55.146
87, -20.70, 40.44, -180.10, 11.14, 0.000, 0.000, 0.000, 17:46:55.161
88, 14.79, 34.34, -178.49, 7.51, 0.000, 0.000, 0.000, 17:46:55.161
89, 22.73, 34.67, -187.01, 10.63, 0.000, 0.000, 0.000, 17:46:55.162
90, -4.86, 43.60, -188.32, 5.10, 0.000, 0.000, 0.000, 17:46:55.162
91, 39.77, 32.72, -195.22, 10.54, 0.000, 0.000, 0.000, 17:46:55.176
92, 18.54, 34.78, -182.27, 10.50, 0.000, 0.000, 0.000, 17:46:55.176
93, -2.73, 27.66, -186.13, 6.04, 0.000, 0.000, 0.000, 17:46:55.191
94, 10.70, 37.37, -172.55, 10.50, 0.000, 0.000, 0.000, 17:46:55.191
95, 1.62, 29.46, -199.96, 9.77, 0.000, 0.000, 0.000, 17:46:55.192
96, 20.50, 50.75, -189.24, 8.44, 0.000, 0.000, 0.000, 17:46:55.192
97, 27.83, 54.51, -180.85, 10.61, 0.000, 0.000, 0.000, 17:46:55.206
98, 29.89, 43.58, -183.85, 9.36, 0.000, 0.000, 0.000, 17:46:55.206
99, 11.65, 42.82, -181.84, 10.53, 0.000, 0.000, 0.000, 17:46:55.221
100, 13.02, 43.91, -184.89, 11.93, 0.000, 0.000, 0.000, 17:46:55.221
101, 14.85, 39.29, -184.49, 10.66, 0.000, 0.000, 0.000, 17:46:55.222
102, 7.17, 39.71, -185.67, 8.85, 0.000, 0.000, 0.000, 17:46:55.222
103, -14.69, 40.07, -192.03, 11.59, 0.000, 0.000, 0.000, 17:46:55.236
104, 8.66, 39.84, -190.20, 9.22, 0.000, 0.000, 0.000, 17:46:55.236
105, 26.18, 40.32, -194.73, 11.98, 0.000, 0.000, 0.000, 17:46:55.251
106, 20.12, 35.15, -187.04, 13.14, 0.000, 0.000, 0.000, 17:46:55.251
107, 29.42, 37.54, -181.16, 13.01, 0.000, 0.000, 0.000, 17:46:55.251
108, 25.71, 35.56, -187.60, 11.56, 0.000, 0.000, 0.000, 17:46:55.251
109, 1.21, 38.63, -181.21, 14.36, 0.000, 0.000, 0.000, 17:46:55.266
110, -0.10, 36.08, -186.16, 5.70, 0.000, 0.000, 0.000, 17:46:55.266
111, 12.40, 37.98, -187.10, 10.02, 0.000, 0.000, 0.000, 17:46:55.296
112, -5.52, 36.74, -190.75, 11.80, 0.000, 0.000, 0.000, 17:46:55.296
113, 25.39, 35.50, -186.54, 10.58, 0.000, 0.000, 0.000, 17:46:55.297
114, 24.97, 34.79, -189.51, 8.29, 0.000, 0.000, 0.000, 17:46:55.297
115, 23.08, 35.88, -197.36, 12.15, 0.000, 0.000, 0.000, 17:46:55.298
116, -8.01, 39.60, -186.10, 10.49, 0.000, 0.000, 0.000, 17:46:55.298
117, 15.94, 40.21, -182.77, 10.37, 0.000, 0.000, 0.000, 17:46:55.311
118, 10.52, 20.51, -187.13, 12.26, 0.000, 0.000, 0.000, 17:46:55.311
119, 12.25, 30.16, -187.04, 11.14, 0.000, 0.000, 0.000, 17:46:55.311
120, 17.94, 34.97, -182.52, 6.25, 0.000, 0.000, 0.000, 17:46:55.312
121, 29.51, 39.48, -179.31, 10.37, 0.000, 0.000, 0.000, 17:46:55.326
122, 9.13, 38.32, -187.32, 5.01, 0.000, 0.000, 0.000, 17:46:55.326
123, 5.44, 46.36, -187.02, 6.40, 0.000, 0.000, 0.000, 17:46:55.341
124, 0.15, 33.62, -186.98, 9.92, 0.000, 0.000, 0.000, 17:46:55.341
125, -4.16, 31.56, -188.73, 10.01, 0.000, 0.000, 0.000, 17:46:55.341
126, 5.25, 36.50, -188.19, 6.72, 0.000, 0.000, 0.000, 17:46:55.342
127, 40.53, 40.43, -185.06, 10.35, 0.000, 0.000, 0.000, 17:46:55.356
128, 36.66, 38.60, -186.15, 9.28, 0.000, 0.000, 0.000, 17:46:55.356
129, 13.48, 35.12, -184.93, 9.64, 0.000, 0.000, 0.000, 17:46:55.371
130, 2.16, 29.22, -190.27, 8.64, 0.000, 0.000, 0.000, 17:46:55.372
131, 8.74, 31.72, -190.97, 9.36, 0.000, 0.000, 0.000, 17:46:55.372
132, -8.84, 41.14, -193.03, 9.11, 0.000, 0.000, 0.000, 17:46:55.372
133, 16.41, 40.31, -187.48, 15.12, 0.000, 0.000, 0.000, 17:46:55.386
134, 25.92, 34.06, -175.09, 10.58, 0.000, 0.000, 0.000, 17:46:55.386
135, 27.30, 48.21, -179.16, 10.20, 0.000, 0.000, 0.000, 17:46:55.401
136, -0.80, 44.56, -186.75, 7.14, 0.000, 0.000, 0.000, 17:46:55.401
137, -9.91, 54.37, -172.45, 12.11, 0.000, 0.000, 0.000, 17:46:55.402
138, 25.18, 41.04, -177.71, 9.01, 0.000, 0.000, 0.000, 17:46:55.402
139, 17.28, 41.12, -178.60, 12.44, 0.000, 0.000, 0.000, 17:46:55.416
140, 35.95, 46.89, -180.85, 13.27, 0.000, 0.000, 0.000, 17:46:55.416
141, 10.43, 27.33, -174.76, 9.60, 0.000, 0.000, 0.000, 17:46:55.431
142, 3.93, 39.42, -191.54, 14.76, 0.000, 0.000, 0.000, 17:46:55.431
143, -4.88, 52.08, -183.38, 10.67, 0.000, 0.000, 0.000, 17:46:55.431
144, 25.83, 52.73, -173.04, 3.24, 0.000, 0.000, 0.000, 17:46:55.431
145, 13.36, 39.94, -179.07, 7.43, 0.000, 0.000, 0.000, 17:46:55.446
146, -20.88, 36.87, -183.53, 7.99, 0.000, 0.000, 0.000, 17:46:55.446
147, 36.73, 35.29, -183.09, 10.76, 0.000, 0.000, 0.000, 17:46:55.461
148, 28.32, 33.89, -179.70, 13.44, 0.000, 0.000, 0.000, 17:46:55.461
149, 19.40, 25.53, -193.30, 10.55, 0.000, 0.000, 0.000, 17:46:55.462
150, 10.15, 39.21, -186.65, 8.31, 0.000, 0.000, 0.000, 17:46:55.462
151, 15.38, 43.47, -188.40, 11.55, 0.000, 0.000, 0.000, 17:46:55.476
152, 12.89, 32.68, -189.93, 8.51, 0.000, 0.000, 0.000, 17:46:55.476
153, -10.06, 36.30, -185.92, 12.75, 0.000, 0.000, 0.000, 17:46:55.491
